File: data/nitrogen-adsorption-isotherms/10.1039_c5cc09935h_page_3_Li+@Zn-MOF-Crown_des.txt
# Relative Pressure (p/p0)    Quantity Adsorbed
0.986631	 358.272
0.946673	316.896
0.902109	290.758
0.851976	283.341
0.799985	275.926
0.747995	274.125
0.697861	270.45
0.649584	269.579
0.59945	265.904
0.549317	263.165
0.50104	259.487
0.450906	257.683
0.400772	253.073
0.354352	250.329
0.300505	248.53
0.252228	243.917
0.202094	239.306
0.153818	237.5
0.0999703	230.087
0.0516934	221.732
0.00898693	204.948