File: data/nitrogen-adsorption-isotherms/10.1039_c5cc09935h_page_3_Li+@Zn-MOF-Crown_ads.txt
# Relative Pressure (p/p0)    Quantity Adsorbed
0.0100826	 122.219
0.00860037	74.9535
0.00888542	59.2394
0.0198956	202.724
0.0144439	191.224
0.0117929	180.222
0.00974057	173.859
0.0105957	106.852
0.0114509	164.377
0.0114509	155.376
0.0114509	145.417
0.0114509	135.937
0.0360254	208.643
0.058118	212.022
0.0709317	219.919
0.0884149	222.639
0.107941	223.158
0.126042	227.488
0.144257	231.581
0.165135	230.127
0.181402	233.167
0.220109	236.806
0.238922	239.275
0.257223	237.257
0.276549	240.694
0.314176	243.767
0.332745	244.891
0.351803	248.365
0.371386	246.738
0.389109	248.989
0.408756	248.17
0.42665	250.056
0.44664	253.934
0.465254	253.068
0.482927	254.287
0.540044	257.968
0.559321	256.858
0.576484	258.961
0.597062	262.442
0.615731	261.353
0.633502	262.934
0.652438	266.398
0.656239	263.802
0.674692	264.021
0.694635	267.989
0.713	268.242
0.730542	268.298
0.749536	271.819
0.770628	271.023
0.788574	273.605
0.805036	278.953
0.803896	272.329
0.825199	275.271
0.845143	280.126
0.863756	280.506
0.881837	283.367
0.901882	287.11
0.928178	289.808
0.951553	302.617
0.977207	326.389
0.984619	355.368