File: data/nitrogen-adsorption-isotherms/10.1039_c5cc09935h_page_3_Zn-MOF-Crown_ads.txt
# Relative Pressure (p/p0)    Quantity Adsorbed
-0.000219479	 85.8918
-0.000676782	74.3024
0.000333857	63.129
0.00261427	103.631
0.0540187	260.998
0.0919133	276.517
0.0984868	269.64
0.111599	275.604
0.129462	277.272
0.148703	278.973
0.167089	281.922
0.203617	285.421
0.22353	287.291
0.274839	296.033
0.293652	292.564
0.312893	295.886
0.330139	297.237
0.354491	296.296
0.374807	301.133
0.392946	305.404
0.395587	296.751
0.412198	307.35
0.410239	300.868
0.430477	305.745
0.449561	307.948
0.465368	303.595
0.469244	309.717
0.486592	308.826
0.505731	306.89
0.524545	309.764
0.542028	311.59
0.563768	311.351
0.580985	313.23
0.618612	314.946
0.636827	316.313
0.656951	315.094
0.675052	317.357
0.694369	320.19
0.710398	324.019
0.713863	318.424
0.731065	321.521
0.750306	324.396
0.769445	323.636
0.787743	326.078
0.807088	325.111
0.82556	328.292
0.844278	331.148
0.865263	331.927
0.882	336.082
0.900813	341.026
0.919627	345.372
0.93921	354.112
0.930744	343.473
0.952294	351.286
0.969995	375.479
0.977155	390.031
0.979488	399.664
0.00155971	182.503
0.00155971	169.404
-0.0040107	136.665
-0.00215389	146.954
0.00155971	225.542
-0.00215389	194.671
0.00155971	201.216
0.00155971	201.216