File: data/nitrogen-adsorption-isotherms/10.1039_c5cc09935h_page_3_Zn-MOF-Crown_des.txt
# Relative Pressure (p/p0)    Quantity Adsorbed
0.981952	 400.119
0.946673	364.613
0.896539	343.161
0.846405	336.679
0.799985	332.999
0.744281	325.589
0.694147	325.657
0.642157	323.855
0.605021	319.227
0.549317	320.238
0.502897	315.622
0.450906	312.886
0.402629	311.079
0.348782	309.281
0.300505	302.796
0.255942	300.049
0.200238	295.446
0.150104	292.707
0.0999703	286.225
0.0516934	271.32
0.00713012	247.054
0.00527332	233.958