File: data/nitrogen-adsorption-isotherms/acs.inorgchem.6b00081-si_page_9_1_ads.txt
# Relative Pressure (p/p0)    Quantity Adsorbed
0.0772734	 146.802
0.0866296	146.978
0.098899	147.61
0.108064	147.874
0.121041	148.464
0.130569	148.555
0.142863	149.215
0.150835	150.138
0.159671	149.781
0.172221	150.392
0.181794	151.007
0.200213	151.728
0.210226	151.73
0.221598	151.923
0.231675	152.459
0.24959	152.662
0.258995	152.659
0.270975	152.577
0.281052	153.269
0.299191	153.744
0.306749	153.566
0.32136	154.088
0.330934	154.078
0.349352	154.686
0.356126	154.804
0.371745	154.896
0.38283	155.636
0.395838	155.808
0.403272	155.777
0.421123	155.598
0.432207	156.27
0.44523	156.771
0.454377	157.033
0.465125	156.926
0.476546	157.153
0.487001	157.223
0.498715	157.648
0.507785	157.559
0.520885	157.967
0.531969	157.956
0.545271	158.523
0.553685	158.541
0.566663	158.765
0.576308	158.771
0.585953	158.869
0.599114	159.364
0.606942	159.395
0.620647	159.478
0.631731	159.467
0.647631	159.589
0.655748	159.623
0.670024	159.43
0.681109	160.17
0.69441	160.382
0.702825	160.336
0.715119	160.244
0.725447	160.204
0.736028	160.974
0.751424	161.137
0.759541	161.165
0.773817	160.937
0.78339	160.927
0.795986	161.407
0.805559	161.395
0.823978	161.799
0.832096	161.845
0.847008	162.338
0.855273	162.358
0.873355	162.585
0.881473	162.619
0.900563	163.154
0.907337	163.272
0.923593	163.121
0.933929	163.193
0.944489	163.349
0.958427	163.941
0.967295	163.95
0.97838	164.729
0.989464	165.127
0.996014	165.384