File: data/nitrogen-adsorption-isotherms/acs.inorgchem.6b00136_page_3_buim_des.txt
# Relative Pressure (p/p0)    Quantity Adsorbed
0.955974	 268.552
0.923608	267.583
0.896638	266.619
0.878653	266.602
0.842674	267.507
0.82289	267.489
0.797718	266.526
0.770732	267.44
0.747351	267.418
0.727567	267.399
0.698798	266.433
0.670013	267.345
0.650229	267.326
0.599878	266.34
0.549511	267.232
0.497353	267.183
0.450591	267.139
0.398433	267.09
0.346283	266.102
0.29774	264.179
0.249179	264.133
0.225815	262.233
0.200652	260.332
0.171875	260.304
0.150301	259.345
0.12334	257.442
0.0999755	255.542
0.0856209	251.773
0.0676355	251.756
0.0460782	248.919
0.0299251	245.148
0.0227563	242.324