File: data/nitrogen-adsorption-isotherms/acs.inorgchem.5b00194_page_3_ZJU-70a_des.txt
# Relative Pressure (p/p0)    Quantity Adsorbed
0.981815	 465.079
0.922814	460.682
0.881796	462.044
0.845907	463.414
0.820257	461.938
0.781795	461.872
0.743324	460.374
0.702298	460.304
0.663836	460.237
0.617682	460.158
0.574101	461.515
0.535639	461.449
0.49715	457.087
0.458688	457.021
0.420218	455.523
0.379209	458.317
0.338166	455.382
0.297131	453.88
0.256096	452.378
0.215061	450.875
0.18171	447.954
0.135529	443.579
0.0944851	440.645
0.0585344	431.992
0.014812	410.44