File: data/nitrogen-adsorption-isotherms/acs.inorgchem.6b00136_page_3_pim_des.txt
# Relative Pressure (p/p0)    Quantity Adsorbed
0.980951	 291.111
0.953989	289.208
0.923422	288.24
0.894646	288.213
0.873072	287.254
0.844261	290.983
0.824511	287.208
0.799331	287.185
0.768748	288.095
0.743551	289.949
0.718371	289.926
0.698604	288.029
0.67882	288.011
0.646446	287.98
0.597869	289.812
0.543895	291.64
0.498932	291.597
0.441395	289.666
0.400029	289.627
0.349686	287.701
0.299327	287.654
0.252582	285.732
0.218418	284.761
0.193247	283.799
0.177085	280.967
0.153704	280.945
0.119532	280.913
0.0979828	277.137
0.0854183	274.308
0.0692482	272.415
0.058457	272.405
0.0494811	270.518
0.0315379	265.807
0.0189818	262.039