File: data/nitrogen-adsorption-isotherms/acs.inorgchem.5b02108-si_page_7_MFM-300(Ga1.87Fe0.13)_ads.txt
# Relative Pressure (p/p0)    Quantity Adsorbed
0.901539	 177.467
0.870563	169.231
0.856989	163.564
0.824115	158.424
0.80283	153.793
0.777706	151.227
0.752587	149.177
0.729399	147.126
0.70235	145.077
0.675296	142.512
0.65598	141.491
0.65598	141.491
0.627011	140.474
0.609604	137.388
0.578705	136.373
0.551672	135.871
0.522704	134.854
0.501452	133.318
0.474403	131.269
0.453151	129.733
0.424194	129.748
0.404889	129.758
0.373984	128.226
0.352738	127.206
0.327636	126.703
0.298645	123.623
0.275474	123.119
0.252297	122.1
0.227195	121.597
0.205938	119.545
0.178894	118.012
0.151845	115.963
0.124813	115.461
0.103533	111.346
0.091939	110.32
0.0803505	109.81
0.0706759	107.752
0.0648678	106.208
0.0571459	106.212
0.0494018	104.153
0.0435992	103.124
0.0435992	103.124
0.0377912	101.58
0.0300471	99.5211
0.0164949	95.9178
0.012562	89.2149
0.012562	89.2149
0.00674842	87.1549
0.00672076	84.5761
0.00669864	82.5131
0.00669311	81.9973
0.00665992	78.9028
0.00664332	77.3555
0.00661013	74.261
0.00463539	70.1359
0.00461327	68.0729
0.00262746	62.9163
0.0025998	60.3375
0.00063059	56.7282
0.000602933	54.1494
-0.00134415	52.6032
0.000558681	50.0234
0.00051996	46.4131
0.000503366	44.8658
0.00236195	38.16
0.000414862	36.6137
0.000387205	34.0349
0.000376142	33.0034
0.000348484	30.4247
0.000315295	27.3301
0.000298701	25.7828
-0.00165392	23.7208
0.000243386	20.6253
0.00212963	16.4982
0.00200793	5.15159