File: data/nitrogen-adsorption-isotherms/acs.inorgchem.5b02316_page_5_FJU-14-ClO4-a_ads.txt
# Relative Pressure (p/p0)    Quantity Adsorbed
0.917135	 76.9163
0.85026	76.9886
0.814263	76.577
0.740449	46.4767
0.671338	33.4883
0.594315	28.1662
0.522366	25.5413
0.447833	23.3696
0.296149	20.8309
0.252447	19.9772
0.234477	18.6453
0.20104	18.6814
0.165054	17.8194
0.136761	17.85
0.108503	16.5292
0.0751003	15.214
0.0519747	14.3381
0.0159887	13.4761
0.00316297	12.1386