File: data/nitrogen-adsorption-isotherms/acs.inorgchem.6b01211-si_page_13_LCuPro_des.txt
# Relative Pressure (p/p0)    Quantity Adsorbed
0.99401	 532.973
0.99401	532.973
0.966168	531.01
0.966168	531.01
0.951172	530.944
0.906186	530.745
0.841906	534.142
0.79694	528.422
0.756252	524.562
0.689836	526.109
0.647006	522.24
0.604161	522.051
0.550626	516.294
0.501403	503.195
0.497206	479.254
0.497274	460.853
0.493071	438.752
0.486712	420.323
0.467513	398.156
0.452517	398.09
0.401118	394.182
0.336865	390.218
0.298319	386.368
0.240499	380.592
0.195526	376.713
0.154838	372.853
0.129138	370.899
0.120583	367.181
0.0906054	363.368
0.0542148	355.847
0.0371042	348.411
0.0178648	337.285
0.00720107	324.356