File: data/nitrogen-adsorption-isotherms/acs.inorgchem.6b00136_page_3_eim_ads.txt
# Relative Pressure (p/p0)    Quantity Adsorbed
0.964586	 310.814
0.946635	307.041
0.921463	306.079
0.869306	306.03
0.844118	306.945
0.827931	306.93
0.791985	304.079
0.772193	305
0.741617	304.971
0.720035	304.951
0.700268	303.054
0.67687	304.91
0.658876	305.832
0.648076	306.761
0.615711	305.792
0.601322	305.778
0.570739	306.688
0.54376	306.663
0.520388	305.702
0.471819	306.596
0.423266	305.611
0.371117	304.623
0.336953	303.652
0.320766	303.637
0.313572	303.63
0.290191	303.608
0.275802	303.595
0.265011	303.584
0.236234	303.557
0.212853	303.535
0.182295	301.629
0.162511	301.61
0.140937	300.651
0.117589	296.873
0.0995955	297.795
0.0726258	296.831
0.0510686	293.994
0.0367055	291.163
0.025948	287.398
0.017006	281.755
0.00983712	278.932
0.00629913	272.356
0.00636668	264.844
0.00110615	249.816
0.00512543	202.871
0.00172255	181.271
0.00188298	163.431
0.00199276	151.225
0.000481301	119.298
0.000743061	90.1907
-0.00439926	62.0169
0.00493122	24.467
0.00149457	6.62338