File: data/nitrogen-adsorption-isotherms/acs.chemmater.5b03723-si_page_29_UHM-25-Val(15)_ads.txt
# Relative Pressure (p/p0)    Quantity Adsorbed
-0.000796178	 -1.12007
-0.000796178	3.36022
-0.000796178	128.808
-0.000796178	170.251
-0.000796178	196.013
0.00141543	247.536
0.00362703	263.217
0.00362703	274.418
0.00583864	283.378
0.0146851	287.858
0.0235315	292.339
0.0522824	308.02
0.0721868	312.5
0.0987261	318.1
0.120842	322.581
0.149593	325.941
0.171709	325.941
0.20046	330.421
0.220364	332.661
0.249115	336.022
0.271231	336.022
0.291136	337.142
0.32431	339.382
0.423832	346.102
0.518931	348.342
0.622877	351.703
0.717976	357.303
0.817498	360.663
0.921444	362.903