File: data/nitrogen-adsorption-isotherms/acs.inorgchem.5b02108-si_page_7_MFM-300(Ga2Fe)_des.txt
# Relative Pressure (p/p0)    Quantity Adsorbed
0.974262	 118.117
0.949105	112.457
0.922034	108.345
0.904648	107.322
0.867952	105.794
0.848631	104.256
0.823518	102.722
0.800341	101.703
0.775239	101.2
0.752062	100.18
0.725029	99.6784
0.701858	99.1746
0.67482	98.157
0.651643	97.1375
0.624616	97.1514
0.601445	96.6476
0.572465	94.5995
0.55316	94.6094
0.528064	94.6224
0.499107	94.6373
0.473994	93.103
0.452758	93.114
0.423795	92.6131
0.400629	92.6251
0.373592	91.6075
0.354287	91.6175
0.327249	90.5999
0.298291	90.6148
0.277039	89.0785
0.248087	89.6092
0.197873	87.5721
0.197873	87.5721
0.228766	88.0719
0.176626	86.5515
0.134155	86.5734
0.143808	86.5684
0.126422	85.5459
0.0993788	84.0125
0.0819933	82.99
0.0665494	82.998
0.0530083	80.4261
0.0394893	79.9174
0.0278953	78.8918
0.0201568	77.3485
0.00852403	72.7127
0.00267724	67.5581