File: data/nitrogen-adsorption-isotherms/acs.inorgchem.6b00081-si_page_9_1_des.txt
# Relative Pressure (p/p0)    Quantity Adsorbed
0.00230415	 -0.103969
0.00230415	7.74344
0.00691244	13.6245
0.0	17.555
0.0	27.3642
0.00691244	36.6763
0.00460829	44.5259
0.00230415	49.9233
0.00460829	58.7494
0.00460829	65.6158
0.00460829	72.4823
0.00460829	81.3107
0.00460829	83.763
0.00460829	93.5722
0.00460829	98.9673
0.00230415	104.365
0.00230415	108.288
0.0	115.157
0.0	119.081
0.00460829	123
-0.00230415	131.835
0.00460829	138.204
0.00691244	127.902
0.0299539	142.103
0.0552995	143.55
0.078341	145.489
0.103687	147.916
0.12212	148.389
0.138249	148.863
0.175115	151.28
0.202765	151.253
0.267281	152.661
0.301843	154.589
0.352535	154.539
0.40553	154.487
0.451613	157.384
0.502304	157.825
0.550691	158.268
0.601382	158.709
0.64977	159.152
0.707373	159.586
0.75576	161.5
0.804147	161.453
0.822581	161.435
0.854839	161.894
0.87788	161.871
0.903226	162.827
0.953917	165.23
0.967742	164.726