File: data/nitrogen-adsorption-isotherms/acs.inorgchem.5b02316_page_5_FJU-14-NO3-a_ads.txt
# Relative Pressure (p/p0)    Quantity Adsorbed
-0.00427523	 1.33582
0.0163015	1.31357
0.0522875	2.17557
0.0522875	2.17557
0.0702922	2.1561
0.114006	2.5593
0.160315	2.05878
0.160315	2.05878
0.198885	2.46754
0.227178	2.43695
0.260615	2.4008
0.294052	2.36465
0.371203	2.7317
0.132011	2.53983
0.445794	2.65106
0.522968	2.11718
0.594952	3.39071
0.679831	3.29895
0.746682	4.12758
0.82381	5.39555
0.900903	8.0149