File: data/nitrogen-adsorption-isotherms/acs.chemmater.5b03723-si_page_33_UHM-25-Pro(17)_des.txt
# Relative Pressure (p/p0)    Quantity Adsorbed
0.920866	 102.755
0.819187	102.393
0.726348	102.027
0.622458	101.253
0.522989	100.89
0.421309	100.115
0.321839	98.9265
0.22679	98.561
0.1229	96.5498
0.0234306	89.9983
0.0212202	89.1743
0.0212202	88.3493
0.0212202	87.9367
0.0212202	86.6991
0.0167993	85.4637
0.0123784	84.6408
0.0123784	83.4031
0.00574713	80.5186
0.00574713	78.4559
0.00353669	68.9686