File: data/nitrogen-adsorption-isotherms/acs.inorgchem.5b02108-si_page_7_MFM-300(Ga1.87Fe0.13)_des.txt
# Relative Pressure (p/p0)    Quantity Adsorbed
0.87256	 175.419
0.847392	168.727
0.847392	168.727
0.828048	165.127
0.802902	160.498
0.771975	156.903
0.748771	153.305
0.725577	150.738
0.698534	149.205
0.675329	145.607
0.648302	145.621
0.623178	143.055
0.598076	142.552
0.576813	139.984
0.54592	139.484
0.526598	137.947
0.49956	136.929
0.474447	135.395
0.447398	133.346
0.422291	132.327
0.399114	131.308
0.372076	130.29
0.32185	127.222
0.32185	127.222
0.350824	128.754
0.296748	126.719
0.273571	125.699
0.22142	123.147
0.22142	123.147
0.248447	123.133
0.202093	121.094
0.167322	119.049
0.14992	116.479
0.122888	115.977
0.0977636	113.412
0.0726396	110.846
0.045574	107.249
0.0242722	101.071
0.0203836	98.4945
0.00875082	93.8587
0.000984606	89.7366