File: data/nitrogen-adsorption-isotherms/acs.chemmater.5b03723-si_page_36_UHM-25-Evans(18)_ads.txt
# Relative Pressure (p/p0)    Quantity Adsorbed
0.00265252	 1.54947
0.00265252	93.6249
0.00265252	111.738
-0.00265252	129.835
0.00265252	141.927
0.00265252	164.568
0.00530504	226.463
0.00530504	249.105
0.0106101	261.196
0.0106101	276.29
0.0185676	288.39
0.0238727	294.444
0.0503979	330.75
0.076481	346.93
0.0985853	352.028
0.125111	355.881
0.145004	358.457
0.17374	363.575
0.198055	364.907
0.22237	366.238
0.246684	370.085
0.270999	370.158
0.299735	372.761
0.319629	372.821
0.421309	376.901
0.525199	384.762
0.618037	386.3
0.726348	389.143
0.825818	391.959
0.927498	398.555
0.987179	399.993