File: data/nitrogen-adsorption-isotherms/acs.chemmater.5b03723-si_page_20-UAH-25-Ala-Boc(11)_des.txt
# Relative Pressure (p/p0)    Quantity Adsorbed
0.00576241	 233.083
0.010195	241.855
0.010195	265.664
0.0146277	271.93
0.0190603	278.195
0.0190603	283.208
0.0212766	289.474
0.0257092	293.233
0.129876	364.662
0.20523	377.193
0.327128	384.712
0.429078	389.724
0.522163	395.99
0.628546	399.749
0.723848	402.256
0.816933	407.268
0.912234	409.774
0.99867	413.534