File: data/nitrogen-adsorption-isotherms/acs.cgd.6b01265-si_page_10_NJU-Bai31_ads.txt
# Relative Pressure (p/p0)    Quantity Adsorbed
0.999855	 480.831
0.986767	479.499
0.95303	480.831
0.925252	480.831
0.89549	480.831
0.845894	479.499
0.822078	480.831
0.79629	479.499
0.748671	479.499
0.695113	476.837
0.649478	476.837
0.59789	476.837
0.546303	476.837
0.4967	476.837
0.447109	474.175
0.399497	472.843
0.347916	471.512
0.296347	467.519
0.248728	467.519
0.197166	462.194
0.183278	462.194
0.159481	459.531
0.137662	458.2
0.121795	456.869
0.0999759	455.538
0.0821378	451.544
0.0504108	447.551
0.0286297	438.232
0.0108233	427.583
0.00687408	423.589
0.00295654	412.939
0.00301359	400.958
-0.00483417	382.322
0.0012133	362.354
-0.00267889	346.379
-0.000618693	330.405
-0.000536285	313.099
-0.00245068	298.456
-0.00036513	277.157
-0.000270044	257.188
-0.000187636	239.883
-9.88894e-05	221.246
-0.00199427	202.609
-0.00189284	181.31
-0.00179776	161.342
-0.00170267	141.374
0.000363862	124.068
0.000465287	102.769
0.000573051	80.1384
0.000655459	62.8328
-0.0012209	40.2023
-0.00113216	21.5655