File: data/nitrogen-adsorption-isotherms/acs.inorgchem.6b00276-si_page_38_26_ads.txt
# Relative Pressure (p/p0)    Quantity Adsorbed
0.993791	 227.662
0.976391	202.344
0.946062	194.387
0.930083	192.216
0.899721	188.6
0.877345	186.429
0.854969	184.259
0.826189	182.812
0.778221	180.642
0.778221	180.642
0.751041	179.196
0.727054	178.472
0.701468	177.749
0.677503	174.132
0.647124	172.685
0.623143	171.238
0.600756	170.515
0.57357	169.792
0.552788	168.345
0.522414	166.175
0.501632	164.728
0.47604	164.728
0.448854	164.005
0.426461	164.005
0.402486	161.834
0.372118	158.941
0.351341	156.771
0.327349	156.771
0.301773	154.601
0.272999	152.431
0.24743	149.537
0.228236	149.537
0.197857	148.09
0.173887	145.197
0.153099	144.473
0.127524	142.303
0.0971445	140.856
0.0747683	138.686
0.0476159	133.623
0.0300437	130.729
0.0109054	123.495
0.00614581	118.432
0.00139733	111.921
-0.000129958	102.517
-0.00163503	90.2199