File: data/nitrogen-adsorption-isotherms/acs.chemmater.5b03723_page_5_UHM-25-Val-Boc_ads.txt
# Relative Pressure (p/p0)    Quantity Adsorbed
0	 9.81733
0.00209205	112.267
-0.00209205	192.734
0.00209205	212.267
0.0041841	307.399
0.00627615	336.677
0.0104603	361.088
0.0146444	383.059
0.0146444	392.816
0.0188285	407.47
0.0460251	478.335
0.0711297	546.75
0.0941423	610.277
0.121339	634.799
0.142259	642.219
0.171548	649.679
0.196653	649.801
0.230126	652.403
0.251046	659.822
0.267782	662.343
0.297071	664.925
0.32636	665.068
0.426778	675.314
0.520921	680.651
0.615063	688.427
0.723849	691.397
0.830544	694.357
0.926778	699.704