File: data/nitrogen-adsorption-isotherms/acs.inorgchem.5b00535_page_2_UiO-68-alkyne_ads.txt
# Relative Pressure (p/p0)    Quantity Adsorbed
-0.00213675	 69.7026
0.0014245	83.8543
0.0014245	95.9756
0.0014245	112.137
0.00320513	233.354
0.00498575	283.865
0.0174501	465.719
0.0299145	566.766
0.0388177	639.519
0.0530627	681.984
0.0584046	696.141
0.0708689	702.238
0.099359	720.503
0.12963	730.692
0.163462	740.891
0.191952	749.055
0.231125	755.23
0.254274	755.297
0.288105	763.476
0.318376	765.584
0.345085	765.662
0.380698	771.826
0.412749	773.94
0.439459	774.018
0.47151	776.131
0.5	780.254
0.540954	780.373
0.569444	780.456
0.599715	786.605
0.635328	782.668
0.658476	786.776
0.695869	784.864
0.72792	788.998
0.758191	789.086
0.790242	793.22
0.820513	791.288
0.852564	793.401
0.881054	793.484
0.913105	793.577
0.941595	793.66
0.971866	791.728
0.998575	791.806