File: data/nitrogen-adsorption-isotherms/acs.chemmater.5b03723-si_page_31_UHM-25-Leu(16)_des.txt
# Relative Pressure (p/p0)    Quantity Adsorbed
0.91995	 377.499
0.82011	374.805
0.724707	372.118
0.622648	369.42
0.527245	366.733
0.420749	360.256
0.320909	356.305
0.223287	349.843
0.125666	339.611
0.0258253	310.522
0.0236067	309.261
0.0236067	308.004
0.021388	305.486
0.014732	301.703
0.014732	297.932
0.0125133	294.158
0.0125133	285.359
0.0102946	275.3
0.00141995	261.458
0.00363862	236.324
-0.00301739	167.181
-0.00301739	163.411
-0.00301739	150.841
-0.00301739	135.758
-0.000798722	120.68