File: data/nitrogen-adsorption-isotherms/acs.inorgchem.5b00535_page_2_UiO-68-triazole-B_des.txt
# Relative Pressure (p/p0)    Quantity Adsorbed
0.996795	 238.265
0.977208	236.188
0.934473	236.064
0.914886	238.027
0.875712	235.893
0.854345	235.831
0.808048	233.676
0.7849	233.608
0.759972	235.556
0.717236	233.411
0.694088	231.324
0.667379	231.246
0.622863	233.137
0.605057	233.085
0.571225	226.926
0.535613	230.863
0.510684	226.75
0.473291	226.641
0.446581	224.543
0.409188	226.455
0.38604	226.387
0.327279	220.156
0.220442	215.805
0.202635	211.712
0.167023	211.609
0.136752	211.521
0.10292	207.382
0.0744302	203.259
0.0548433	189.06
0.0388177	178.913
0.022792	168.765
0.0192308	148.553