File: data/nitrogen-adsorption-isotherms/acs.inorgchem.5b02316_page_5_FJU-14-NO3-a_des.txt
# Relative Pressure (p/p0)    Quantity Adsorbed
0.977996	 10.6343
0.864905	7.60337
0.767258	4.10533
0.661803	4.21934
0.564075	3.87454
0.489508	3.05425
0.489508	3.05425
0.39178	2.70945
0.268331	2.39246
0.173176	2.04488
0.090892	1.23293
0.0317224	1.74735