File: data/nitrogen-adsorption-isotherms/acs.inorgchem.6b01211-si_page_13_LCu_des.txt
# Relative Pressure (p/p0)    Quantity Adsorbed
1.00004	 639.73
0.972203	637.766
0.972203	637.766
0.933643	637.596
0.903652	637.464
0.875796	639.181
0.847954	637.218
0.824404	633.433
0.79869	635.16
0.751568	633.112
0.700155	632.885
0.646614	628.968
0.580205	628.675
0.548072	628.533
0.498801	628.315
0.443225	594.947
0.396103	592.898
0.331837	592.614
0.295426	590.613
0.246169	586.716
0.196912	582.818
0.139079	580.722
0.0855506	573.125
0.0448823	563.745
0.0171012	545.22
-0.00423306	521.204
-0.00405736	473.36