File: data/nitrogen-adsorption-isotherms/acs.inorgchem.5b00535_page_2_UiO-68-triazole-B_ads.txt
# Relative Pressure (p/p0)    Quantity Adsorbed
0.00320513	 23.2535
0.00676638	77.8093
0.022792	134.422
0.0299145	152.624
0.0566239	183.005
0.12963	205.439
0.1599	207.548
0.193732	209.666
0.293447	224.098
0.320157	220.135
0.355769	220.239
0.378917	224.346
0.419872	224.466
0.453704	224.564
0.482194	228.687
0.510684	228.77
0.546296	228.874
0.580128	226.952
0.606838	231.07
0.638889	229.143
0.674501	227.227
0.702991	231.35
0.733262	233.458
0.767094	233.556
0.793803	233.634
0.859687	231.806
0.886396	233.904
0.920228	234.002
0.948718	234.085
0.977208	234.168
0.995014	232.199