File: data/nitrogen-adsorption-isotherms/acs.chemmater.5b03723-si_page_31_UHM-25-Leu(16)_ads.txt
# Relative Pressure (p/p0)    Quantity Adsorbed
-0.000798722	 2.52973
-0.00301739	81.7112
-0.000798722	128.221
-0.00301739	145.814
-0.000798722	154.616
-0.000798722	223.746
0.00141995	248.889
0.00807597	266.498
0.0102946	282.841
0.0435747	318.095
0.0724175	325.689
0.0968229	332.018
0.11901	333.315
0.147852	338.395
0.170039	339.692
0.2011	344.775
0.245474	346.113
0.265442	348.663
0.292066	352.482
0.325346	352.542
0.427405	357.754
0.520589	361.694
0.62043	366.902
0.724707	368.348
0.822329	369.781
0.926606	374.998
0.990948	378.885