File: data/nitrogen-adsorption-isotherms/acs.inorgchem.5b00535_page_2_UiO-68-triazole-A_des.txt
# Relative Pressure (p/p0)    Quantity Adsorbed
0.995014	 395.836
0.977208	395.784
0.934473	393.639
0.914886	393.582
0.873932	391.443
0.852564	391.381
0.809829	387.216
0.788462	389.174
0.743946	389.045
0.724359	388.988
0.690527	390.91
0.665598	386.797
0.624644	386.677
0.606838	386.626
0.562322	382.456
0.542735	382.399
0.503561	384.305
0.480413	384.238
0.441239	376.043
0.382479	373.852
0.352208	369.723
0.320157	369.63
0.295228	373.598
0.257835	369.449
0.224003	369.35
0.202635	365.248
0.165242	361.099
0.134972	354.95
0.106481	352.847
0.0762108	344.678
0.0530627	336.53
0.037037	320.322
0.0281339	300.094
0.0210114	255.628
0.0156695	243.492
0.0138889	231.365
0.0138889	223.285
0.0138889	217.224
0.0138889	205.103
0.0121083	201.057
0.0121083	199.037
0.00854701	186.905
0.00854701	176.804
0.00854701	170.744
0.00676638	168.718
0.00676638	162.658
0.00498575	150.531
-0.00213675	142.43