File: data/nitrogen-adsorption-isotherms/acs.inorgchem.5b00535_page_2_UiO-68-triazole-C_ads.txt
# Relative Pressure (p/p0)    Quantity Adsorbed
0.00512821	 34.9762
0.00512821	61.158
0.0102564	81.5366
0.0153846	107.733
0.0179487	133.923
0.025641	151.4
0.0333333	165.967
0.0384615	165.982
0.0487179	168.921
0.0615385	171.868
0.0974359	189.427
0.125641	192.418
0.166667	195.446
0.197436	198.445
0.217949	198.504
0.25641	204.434
0.287179	204.524
0.317949	204.614
0.353846	207.627
0.374359	207.687
0.412821	213.617
0.441026	213.699
0.479487	216.72
0.505128	216.794
0.548718	219.83
0.571795	216.988
0.605128	217.085
0.638462	217.182
0.669231	217.272
0.7	217.361
0.733333	217.458
0.769231	217.563
0.789744	220.531
0.820513	223.53
0.851282	223.62
0.879487	223.702
0.905128	229.594
0.935897	226.775
0.979487	223.993
1.00256	229.878