File: data/nitrogen-adsorption-isotherms/acs.inorgchem.6b00136_page_3_mim_ads.txt
# Relative Pressure (p/p0)    Quantity Adsorbed
0.982141	 358.718
0.965971	356.825
0.951591	355.872
0.926412	355.849
0.899442	354.884
0.872472	353.92
0.845494	353.895
0.814919	353.866
0.802329	353.854
0.786142	353.839
0.746582	352.863
0.721403	352.839
0.696223	352.816
0.689029	352.809
0.662051	352.784
0.618877	353.682
0.588302	353.653
0.474985	354.486
0.422844	352.559
0.408464	351.606
0.374292	351.574
0.336514	352.478
0.327521	352.469
0.314931	352.458
0.284356	352.429
0.273565	352.419
0.268169	352.414
0.239409	350.509
0.210633	350.482
0.183671	348.578
0.1585	347.616
0.138724	346.658
0.115343	346.636
0.0973664	345.681
0.0183823	328.705
0.013012	325.883
0.0112472	322.125
0.0112472	322.125
0.00591071	315.548
0.00233051	313.666
0.00236429	309.911
0.00238962	307.094
0.000700842	294.886
-0.0010386	288.311
-0.000920383	275.166
0.00105548	255.449
0.00136791	220.708
-0.00546319	180.326
-0.00146079	135.259
-0.00108926	93.9449
-0.000312423	7.56065