File: data/nitrogen-adsorption-isotherms/acs.inorgchem.5b00194_page_3_ZJU-70a_ads.txt
# Relative Pressure (p/p0)    Quantity Adsorbed
0.00977712	 372.844
0.0132319	398.572
0.022761	419.167
0.0382125	424.343
0.0814414	436.435
0.118419	441.655
0.155396	446.875
0.186173	448.653
0.213849	448.71
0.247701	450.494
0.278477	452.272
0.315404	454.063
0.355381	454.145
0.404583	454.246
0.45386	459.492
0.55534	459.701
0.604516	458.087
0.644493	458.169
0.696821	461.706
0.80135	460.207
0.835176	460.276
0.893629	462.111
0.94588	460.504