File: data/nitrogen-adsorption-isotherms/acs.chemmater.5b03723_page_5_UHM-25-Val-Boc_des.txt
# Relative Pressure (p/p0)    Quantity Adsorbed
0.997908	 702.49
0.914226	699.643
0.786611	696.581
0.719665	696.255
0.621339	690.897
0.5	682.988
0.41841	682.59
0.328452	674.834
0.219665	659.669
0.121339	642.117
0.0292887	466.058
0.0251046	451.403
0.0230126	431.881
0.0146444	405.011
0.00627615	365.946
0.00627615	346.433
0.0041841	314.716
0.00209205	256.169
0.0146444	412.328