File: data/nitrogen-adsorption-isotherms/acs.inorgchem.6b00081-si_page_9_3_des.txt
# Relative Pressure (p/p0)    Quantity Adsorbed
0.988479	 143.125
0.974654	143.138
0.926267	143.186
0.907834	143.204
0.870968	142.259
0.857143	142.273
0.827189	142.302
0.801843	140.365
0.801843	140.365
0.700461	140.955
0.700461	140.955
0.758065	140.899
0.596774	139.095
0.596774	139.095
0.5	138.209
0.5	138.209
0.400922	136.344
0.400922	136.344
0.451613	137.275
0.354839	135.899
0.297235	134.975
0.253456	133.546
0.207373	133.591
0.154378	132.662
0.115207	131.229
0.105991	131.238
0.0829493	130.28