File: data/nitrogen-adsorption-isotherms/acs.chemmater.5b03723-si_page_25_UHM-25-Leu-Boc (13)_des.txt
# Relative Pressure (p/p0)    Quantity Adsorbed
0.913737	 516.833
0.919374	486.72
0.786697	500.417
0.711223	487.221
0.621	477.405
0.52525	467.602
0.425848	449.446
0.317229	432.986
0.223346	416.489
0.123962	393.317
0.0211526	299.919
0.0211834	291.558