File: data/nitrogen-adsorption-isotherms/acs.cgd.6b01265-si_page_10_NJU-Bai30_des.txt
# Relative Pressure (p/p0)    Quantity Adsorbed
0.990283	 489.383
0.973774	483.863
0.95724	483.889
0.917594	476.187
0.891139	476.23
0.86303	476.274
0.844842	476.304
0.838234	475.205
0.810125	475.25
0.810125	475.25
0.772101	474.201
0.722508	472.062
0.67292	468.813
0.621674	466.676
0.575372	467.859
0.52412	466.832
0.474543	461.364
0.420016	453.686
0.368759	453.768
0.307587	452.756
0.272875	450.593
0.21998	447.35
0.147239	445.247
0.0893944	439.793
0.0480951	432.094
-0.00466749	401.116
-0.00757291	316.811
-0.00383284	225.84
-0.00339438	133.764
0.00191991	59.4303
-0.00116513	12.8431