File: data/nitrogen-adsorption-isotherms/acs.inorgchem.5b01023_page_2_FIR-28-ht_des.txt
# Relative Pressure (p/p0)    Quantity Adsorbed
0.979866	 260.086
0.959732	261.373
0.895973	260.086
0.845638	262.661
0.798658	261.373
0.751678	261.373
0.701342	262.661
0.651007	262.661
0.597315	261.373
0.550336	260.086
0.503356	260.086
0.45302	258.798
0.399329	258.798
0.355705	256.223
0.305369	256.223
0.251678	253.648
0.197987	252.361
0.151007	251.073
0.100671	245.923
0.0503356	239.485