File: data/nitrogen-adsorption-isotherms/acs.inorgchem.5b02316_page_5_FJU-14-ClO4-a_des.txt
# Relative Pressure (p/p0)    Quantity Adsorbed
0.997436	 81.6777
0.866667	78.4241
0.769231	77.0108
0.674359	69.2109
0.615385	36.3323
0.582051	32.2106
0.476923	25.3185
0.374359	22.5341
0.279487	20.2094
0.194872	18.802
0.0974359	16.4762