File: data/nitrogen-adsorption-isotherms/acs.chemmater.5b03723-si_page_20-UAH-25-Ala-Boc(11)_ads.txt
# Relative Pressure (p/p0)    Quantity Adsorbed
-0.00265957	 4.51128
0.0	84.2105
0.00132979	132.832
0.00132979	150.376
-0.000886525	157.895
0.0035461	205.514
0.0035461	228.07
0.010195	251.88
0.0124113	258.145
0.016844	265.664
0.0212766	273.183
0.0234929	280.702
0.0301418	289.474
0.0478723	320.802
0.0744681	347.118
0.0988475	358.396
0.129876	363.409
0.154255	367.168
0.176418	369.674
0.203014	373.434
0.227394	373.434
0.245124	377.193
0.282801	379.699
0.304965	379.699
0.426862	388.471
0.524379	393.484
0.621897	397.243
0.721631	403.509
0.828014	406.015
0.927748	407.268
0.994238	413.534