File: data/nitrogen-adsorption-isotherms/acs.chemmater.5b03723-si_page_27_UHM-25-Ala(14)_ads.txt
# Relative Pressure (p/p0)    Quantity Adsorbed
0.00617284	 0.9765625
0.00396825	6.83594
0.00617284	104.492
0.00617284	129.883
0.00396825	143.555
0.00396825	149.414
0.00617284	182.617
0.00837743	200.195
0.0458554	231.445
0.0767196	237.305
0.0987654	240.234
0.12522	243.164
0.149471	246.094
0.167108	246.094
0.195767	250
0.228836	252.93
0.253086	253.906
0.270723	254.883
0.301587	254.883
0.321429	257.813
0.425044	262.695
0.519841	265.625
0.625661	269.531
0.718254	274.414
0.824074	276.367
0.921076	282.227
0.989418	287.109
0.0127866	207.031
0.0149912	212.891
0.0194004	218.75
0.0238095	222.656