File: data/nitrogen-adsorption-isotherms/acs.cgd.6b01265-si_page_10_NJU-Bai31_des.txt
# Relative Pressure (p/p0)    Quantity Adsorbed
0.974155	 482.765
0.942346	481.389
0.942346	481.389
0.916501	481.355
0.884692	482.645
0.862823	479.95
0.831014	479.907
0.813121	481.217
0.7833	481.177
0.729622	481.105
0.673956	479.698
0.630219	478.306
0.576541	478.235
0.524851	478.166
0.477137	475.435
0.423459	472.697
0.375746	469.967
0.322068	469.895
0.276342	468.501
0.224652	464.432
0.153082	459.003
0.0298211	438.839
0.00994036	426.812
-0.00397614	330.794
-0.00198807	238.797
-0.00198807	118.797