File: data/nitrogen-adsorption-isotherms/acs.inorgchem.6b00276-si_page_38_24_ads.txt
# Relative Pressure (p/p0)    Quantity Adsorbed
0.996203	 502.586
0.974838	415.341
0.953663	387.316
0.922932	368.655
0.903733	359.329
0.873032	350.018
0.855765	345.366
0.83081	334.489
0.802046	331.409
0.775185	323.652
0.752176	322.123
0.727246	319.039
0.704243	319.069
0.673558	314.433
0.65629	309.78
0.627532	308.259
0.6007	309.853
0.575765	305.21
0.552752	302.123
0.5259	297.482
0.499058	295.959
0.47604	291.313
0.447281	289.792
0.422351	286.708
0.399348	286.738
0.376335	283.651
0.349488	280.569
0.328392	277.479
0.297716	275.96
0.278542	274.427
0.249768	268.23
0.22675	263.585
0.203737	260.498
0.17689	257.416
0.150043	254.334
0.127015	246.572
0.0982611	246.609
0.07715	238.844
0.05222	235.76
0.031099	224.878
0.00994809	204.646
0.0041774	198.42
0.0022306	189.071
0.00219575	178.162
0.00216588	168.812
0.002136	159.461
0.00020414	154.788
0.000164308	142.321
0.000139413	134.529
0.000109539	125.178
6.97064e-05	112.711
2.98742e-05	100.243
-0.00193684	84.6613
-0.00195676	78.4275
-0.00198663	69.0769