File: data/nitrogen-adsorption-isotherms/acs.inorgchem.5b02316_page_5_FJU-14-BF4-a_ads.txt
# Relative Pressure (p/p0)    Quantity Adsorbed
0.906035	 108.46
0.818619	107.203
0.751814	104.572
0.674686	103.305
0.600108	102.935
0.520361	103.471
0.463787	103.082
0.363499	102.29
0.294075	101.464
0.260673	100.148
0.234964	99.7258
0.204122	98.8583
0.170708	97.9935
0.134745	96.2306
0.101377	93.5639
0.0680676	88.645
0.0501789	84.1598
0.00666194	76.0988
0.0094194	68.8886
-0.00807543	49.0877
-0.00746137	25.2131