File: data/nitrogen-adsorption-isotherms/acs.inorgchem.6b00081-si_page_2_ads.txt
# Relative Pressure (p/p0)    Quantity Adsorbed
0.993088	 153.42
0.974654	152.457
0.9447	152.487
0.928571	152.012
0.907834	152.032
0.880184	151.569
0.857143	150.12
0.827189	150.64
0.792627	149.203
0.748848	148.265
0.702765	146.348
0.652074	146.398
0.601382	144.976
0.550691	142.573
0.497696	141.154
0.458525	139.231
0.398618	137.327
0.35023	137.375
0.299539	135.953
0.258065	134.032
0.202765	132.124
0.186636	129.688
0.175115	129.699
0.147465	128.255
0.124424	127.297
0.0990783	126.341
0.0875576	125.861
0.062212	124.415
0.0483871	123.938
0.0276498	121.506
0.016129	118.084
0.00691244	115.15
0.00691244	111.227
0.00691244	107.303
0.00691244	101.908
0.00691244	97.0032
0.00230415	89.1603
0.00460829	82.7821
0.00691244	74.4419
0.00230415	67.58
0.00460829	60.2207
0.00460829	52.8638
0.00460829	45.0164
0.00230415	39.6236
0.00691244	33.243
0.00691244	22.4528
0.00460829	17.06
0.00230415	8.23391
0.00691244	1.3629