File: data/nitrogen-adsorption-isotherms/acs.inorgchem.6b00276-si_page_38_26_des.txt
# Relative Pressure (p/p0)    Quantity Adsorbed
0.977929	 210.301
0.949677	198.084
0.926393	192.558
0.899762	189.042
0.876455	186.53
0.84871	183.516
0.82425	186.53
0.802046	185.023
0.775408	182.511
0.748757	181.506
0.725439	180.502
0.698789	179.497
0.674371	176.985
0.647721	175.981
0.625517	174.474
0.599985	172.464
0.571117	170.957
0.550017	170.455
0.525592	168.948
0.4967	170.455
0.473386	168.948
0.448965	166.938
0.424536	165.934
0.398989	165.934
0.371239	163.422
0.349028	162.92
0.324607	160.91
0.299075	158.901
0.274653	156.891
0.246892	155.887
0.223574	154.882
0.201363	154.38
0.153627	150.863
0.123668	146.844
0.098132	145.337
0.0737223	141.821
0.0481865	140.314
0.0215747	134.286