File: data/nitrogen-adsorption-isotherms/acs.inorgchem.6b00136_page_3_buim_ads.txt
# Relative Pressure (p/p0)    Quantity Adsorbed
0.977565	 267.634
0.966773	267.624
0.945191	267.603
0.623251	267.301
0.569278	269.128
0.522524	268.145
0.473972	267.161
0.418217	267.109
0.369665	266.124
0.335492	266.092
0.322902	266.08
0.312111	266.07
0.281536	266.041
0.272551	265.094
0.259962	265.082
0.236581	265.06
0.200618	264.087
0.184448	262.194
0.164664	262.176
0.137703	260.272
0.112523	260.249
0.0909659	257.412
0.0801746	257.401
0.062206	255.507
0.0550372	252.683
0.047843	252.676
0.028135	244.207
0.0173944	238.563
-0.000531964	231.974
0.00491434	226.345
0.00321712	215.076
0.00331844	203.808
-0.000126658	186.904
1.11022e-16	172.819
0.00191676	159.675
0.00204342	145.591
0.00218696	129.629
0.00231362	115.544
0.0024825	96.7652
0.00265982	77.047
0.00276115	65.7795
0.00291314	48.8782
0.00307357	31.038
0.00141013	16.013