File: data/nitrogen-adsorption-isotherms/acs.inorgchem.6b00136_page_3_eim_des.txt
# Relative Pressure (p/p0)    Quantity Adsorbed
0.980782	 309.89
0.930431	308.904
0.955602	309.867
0.905277	306.064
0.849522	306.011
0.872903	306.033
0.826141	305.989
0.800952	306.905
0.748778	308.734
0.723598	308.71
0.67144	308.661
0.700225	307.749
0.642672	307.695
0.54555	307.604
0.496973	309.436
0.448446	305.635
0.396305	303.708
0.347727	305.54
0.297385	303.615
0.250631	302.632
0.225452	302.608
0.196692	300.703
0.176899	301.624
0.149938	299.721
0.12296	299.695
0.0995787	299.673
0.0798115	297.777
0.0636415	295.884
0.0546741	293.058
0.0313183	290.219
0.0187623	286.452
0.0438828	293.048
0.00450903	271.415
-0.0043486	256.383
-0.000219541	197.232
0.00184921	167.187
-0.0030398	110.844
-0.00255005	56.3848
-0.000312423	7.56065