File: data/nitrogen-adsorption-isotherms/acs.chemmater.5b03723-si_page_36_UHM-25-Evans(18)_des.txt
# Relative Pressure (p/p0)    Quantity Adsorbed
0.918656	 396.013
0.823607	393.21
0.721927	391.645
0.620248	388.823
0.520778	386.007
0.423519	380.682
0.321839	376.601
0.22679	370.025
0.125111	359.655
0.0278515	309.047
0.0234306	305.26
0.0212202	301.48
0.0167993	293.919
0.0167993	288.888
0.0145889	280.076
0.00795756	266.22
0.00795756	254.899
0.00574713	234.766
0.00132626	188.212
0.00353669	181.929
0.00132626	170.602
0.00132626	159.281
0.00132626	145.445