File: data/nitrogen-adsorption-isotherms/acs.inorgchem.5b00535_page_2_UiO-68-triazole-C_des.txt
# Relative Pressure (p/p0)    Quantity Adsorbed
1.00256	 224.06
0.969231	226.872
0.930769	220.942
0.917949	223.814
0.876923	220.785
0.838462	220.673
0.820513	220.621
0.782051	223.418
0.758191	221.409
0.720798	221.301
0.69943	217.198
0.653134	217.063
0.635328	217.012
0.592593	216.887
0.573006	216.83
0.535613	214.701
0.512464	216.654
0.47151	214.515
0.446581	214.442
0.409188	212.313
0.391382	212.261
0.352208	210.127
0.320157	210.034
0.288105	207.921
0.257835	207.833
0.231125	205.735
0.193732	203.606
0.167023	201.508
0.136752	197.379
0.108262	195.276
0.0779915	193.168
0.0530627	185.015
0.037037	178.907
0.0299145	166.766
0.0210114	132.396