File: data/nitrogen-adsorption-isotherms/acs.inorgchem.6b00276-si_page_38_25_ads.txt
# Relative Pressure (p/p0)    Quantity Adsorbed
0.992063	 327.778
0.974888	314.757
0.923231	293.056
0.923231	293.056
0.900225	289.583
0.875307	285.243
0.848482	279.167
0.823583	272.222
0.800584	267.882
0.777598	261.806
0.746921	257.465
0.725854	251.389
0.695178	247.049
0.674098	242.708
0.649159	240.972
0.622334	234.896
0.601254	230.556
0.570611	221.875
0.549511	220.139
0.522679	214.931
0.497754	211.458
0.476667	207.986
0.453675	202.778
0.42685	196.701
0.401918	194.097
0.371241	189.757
0.350181	182.8125
0.325249	180.208
0.30225	175.868
0.271573	171.528
0.242829	165.451
0.227487	163.715
0.196824	157.639
0.173831	152.431
0.148912	148.09
0.122088	142.014
0.0990816	138.542
0.0722769	129.861
0.0454455	124.653
0.0454455	124.653
0.0243722	119.444
0.00526498	108.16
-0.000446524	102.083
-0.00229926	93.4028
-0.00227261	89.9306
-0.00223928	85.5903
-0.00221929	82.9861
-0.00219263	79.5139
-0.0040587	72.5694
-0.00403204	69.0972
-0.00400538	65.625
-0.00203268	58.6806
-0.00197937	51.7361