File: data/nitrogen-adsorption-isotherms/acs.inorgchem.6b01211-si_page_13_LCu_ads.txt
# Relative Pressure (p/p0)    Quantity Adsorbed
0.985049	 639.663
0.961485	639.559
0.922925	639.389
0.901523	633.774
0.873681	631.811
0.847988	628.017
0.824437	624.233
0.80088	622.288
0.747352	614.691
0.700243	608.963
0.648844	605.055
0.599573	604.838
0.550309	602.78
0.498903	600.713
0.45393	596.834
0.353253	594.549
0.303988	592.491
0.248298	590.405
0.18618	588.291
0.171198	584.544
0.158345	584.488
0.121948	578.806
0.100533	576.872
0.0598575	569.331
0.0256227	558.139
0.00641041	539.653
-0.00209761	523.053
-0.00420603	513.843
-0.004179	506.483
-0.00413845	495.442
-0.00409115	482.561
-0.00405736	473.36
-0.00617254	465.99
-0.00828096	456.78
-0.00826745	453.1
-0.00824717	447.579
-0.0082269	442.059
-0.00819987	434.698
-0.00815932	423.658
-0.00597656	412.626
-0.00596305	408.946
-0.00594953	405.266
-0.00592926	399.745
-0.00588196	386.864
-0.00586844	383.184
-0.00583465	373.983
-0.00578735	361.102
-0.00571977	342.701
-0.00565219	324.3
-0.00551704	287.497
-0.00321264	243.343
-0.0030437	197.339
-0.00284096	142.135
-0.00479396	90.602
-0.000212194	9.65481