File: data/nitrogen-adsorption-isotherms/acs.inorgchem.5b00535_page_2_UiO-68-alkyne_des.txt
# Relative Pressure (p/p0)    Quantity Adsorbed
0.996795	 791.8
0.977208	791.743
0.930912	791.609
0.911325	791.552
0.872151	791.438
0.849003	791.371
0.822293	791.293
0.7849	787.144
0.75641	789.081
0.72792	788.998
0.69765	786.89
0.667379	786.802
0.629986	786.693
0.605057	786.62
0.574786	782.492
0.537393	780.363
0.514245	780.296
0.469729	776.126
0.450142	776.069
0.409188	771.909
0.38604	771.842
0.355769	771.754
0.318376	767.605
0.297009	765.522
0.257835	759.348
0.222222	753.184
0.195513	751.086
0.167023	748.983
0.140313	742.844
0.110043	728.615
0.0726496	712.344
0.0566239	694.116
0.0388177	653.66
0.0281339	597.063
0.0174501	496.022