File: data/nitrogen-adsorption-isotherms/acs.inorgchem.6b00276-si_page_38_25_des.txt
# Relative Pressure (p/p0)    Quantity Adsorbed
0.994002	 325.174
0.974888	314.757
0.951869	313.021
0.925774	302.17
0.899148	297.95
0.875188	293.731
0.84859	285.894
0.820645	279.866
0.8046875	275.043
0.774063	270.824
0.748784	264.796
0.699545	254.548
0.699545	254.548
0.675576	251.534
0.648964	245.505
0.626351	239.477
0.59973	234.655
0.577103	230.435
0.549154	225.01
0.523875	218.981
0.499915	214.762
0.475959	209.939
0.449343	204.514
0.425383	200.294
0.402751	196.677
0.37613	191.855
0.349504	187.635
0.325545	183.415
0.298905	181.004
0.273612	176.784
0.249661	171.359
0.224382	165.331
0.201755	161.111
0.176472	155.686
0.148518	150.863
0.123225	146.644
0.0979414	141.218
0.0460367	130.97
0.0460367	130.97
0.0221	123.736