File: data/nitrogen-adsorption-isotherms/acs.chemmater.5b03723-si_page_27_UHM-25-Ala(14)_des.txt
# Relative Pressure (p/p0)    Quantity Adsorbed
0.00139624	 124.674
0.00323339	136.882
0.00323339	146.647
0.00323339	152.344
0.00507055	157.227
0.0069077	192.22
0.010582	203.613
0.0124192	210.124
0.0160935	215.007
0.0160935	219.076
0.0160935	221.517
0.0197678	223.145
0.0252792	227.214
0.0289536	229.655
0.12816	249.186
0.221855	255.697
0.324735	262.207
0.425779	265.462
0.523148	269.531
0.61868	273.6
0.721561	276.042
0.820767	280.111
0.918136	284.18