File: data/nitrogen-adsorption-isotherms/acs.cgd.6b01265-si_page_10_NJU-Bai30_ads.txt
# Relative Pressure (p/p0)    Quantity Adsorbed
-0.00117569	 15.0618
-0.00289782	29.486
-0.00297178	45.0168
-0.00303517	58.3289
0.00184595	74.9612
-0.00317251	87.1719
-0.00491577	106.033
-0.00333099	120.452
-0.00341023	137.092
-0.0034789	151.514
-0.00353701	163.717
-0.00360569	178.138
-0.00202619	193.666
-0.00209487	208.088
-0.00216354	222.509
-0.00224278	239.149
-0.00231145	253.571
-0.00238541	269.102
-0.000795347	282.411
-0.00419205	301.275
-0.00426601	316.806
-0.00431884	327.9
-0.00274991	345.647
-0.00281858	360.068
-0.00288197	373.38
-0.00294008	385.583
0.00196745	396.668
0.00851786	409.97
0.0266424	423.253
0.0398384	429.888
0.0844393	438.691
0.0993098	440.886
0.120799	441.961
0.132363	444.162
0.16212	445.223
0.176996	446.309
0.203451	446.267
0.248083	448.414
0.294359	452.778
0.347275	451.584
0.396868	453.723
0.44645	458.081
0.497712	456.89
0.545668	455.704
0.596909	458.95
0.646497	462.199
0.696106	461.01
0.747352	463.147
0.795281	467.508
0.818429	467.471
0.844863	471.866
0.874631	470.709
0.896115	472.894
0.924218	473.958
0.94901	476.137
0.96883	480.543
0.990309	483.837