File: data/nitrogen-adsorption-isotherms/acs.inorgchem.6b00081-si_page_9_2_des.txt
# Relative Pressure (p/p0)    Quantity Adsorbed
0.979263	 154.415
0.951613	153.461
0.921659	153.49
0.900922	153.02
0.873272	153.047
0.859447	152.57
0.827189	151.621
0.804147	151.644
0.753456	150.712
0.705069	148.307
0.654378	147.376
0.603687	145.955
0.550691	144.535
0.506912	144.578
0.456221	143.156
0.400922	141.249
0.352535	139.825
0.306452	138.889
0.25576	138.448
0.209677	137.022
0.152074	134.136
0.124424	133.182
0.110599	132.215
0.0852535	131.259