File: data/nitrogen-adsorption-isotherms/acs.inorgchem.6b00136_page_3_mim_des.txt
# Relative Pressure (p/p0)    Quantity Adsorbed
0.965954	 358.703
0.956978	356.816
0.926412	355.849
0.906628	355.83
0.874254	355.8
0.849074	355.776
0.820306	354.81
0.802329	353.854
0.771754	353.825
0.748372	353.804
0.721394	353.778
0.698013	353.756
0.671035	353.731
0.660244	353.721
0.649452	353.711
0.64046	353.702
0.622474	353.685
0.597303	352.723
0.575712	353.641
0.566719	353.633
0.559525	353.626
0.548734	353.616
0.527151	353.596
0.519966	352.65
0.503779	352.635
0.476809	351.671
0.448024	352.583
0.395866	352.534
0.350911	351.552
0.295164	350.561
0.242998	351.451
0.223231	349.555
0.199858	348.594
0.169283	348.565
0.149499	348.546
0.124345	345.706
0.0955678	345.679
0.0794147	341.908
0.0596391	340.95
0.039872	339.054
0.0345017	336.232
0.0237526	331.527
0.0165753	329.642