File: data/nitrogen-adsorption-isotherms/acs.inorgchem.6b00276-si_page_38_23_ads.txt
# Relative Pressure (p/p0)    Quantity Adsorbed
0.991289	 164.41
0.972045	141.059
0.949012	131.738
0.899157	127.127
0.899157	127.127
0.927921	130.207
0.870403	127.165
0.820553	124.113
0.799462	122.582
0.772625	122.616
0.749622	122.646
0.724707	124.237
0.695958	125.833
0.68254	125.85
0.651849	119.656
0.630763	119.684
0.605853	122.833
0.569426	121.322
0.569426	121.322
0.529166	119.816
0.498495	119.856
0.475487	118.327
0.475487	118.327
0.425642	116.833
0.425642	116.833
0.452479	116.798
0.394976	118.432
0.379641	118.451
0.350882	116.93
0.302954	115.434
0.302954	115.434
0.329806	120.075
0.278034	115.467
0.222433	112.422
0.222433	112.422
0.251187	112.384
0.205181	112.444
0.176417	109.365
0.153409	107.836
0.122733	106.318
0.101652	107.903
0.0728929	106.382
0.0575526	104.844
0.0364415	97.079
0.0172573	92.4286