File: data/nitrogen-adsorption-isotherms/acs.inorgchem.6b00276-si_page_38_24_des.txt
# Relative Pressure (p/p0)    Quantity Adsorbed
0.976905	 462.091
0.949988	437.191
0.923116	426.317
0.875143	410.795
0.875143	410.795
0.903917	416.991
0.846375	406.157
0.846375	406.157
0.80227	401.539
0.825283	404.626
0.77159	398.462
0.750489	393.814
0.698712	387.647
0.698712	387.647
0.725559	390.729
0.673772	381.446
0.646925	378.364
0.627741	373.714
0.604728	370.627
0.579793	365.984
0.552946	362.902
0.501179	359.852
0.501179	359.852
0.52227	361.383
0.47608	303.781
0.453066	300.694
0.428131	296.051
0.399363	291.413
0.378272	289.882
0.357185	289.909
0.326495	283.715
0.297731	280.636
0.274728	280.666
0.253622	274.459
0.224858	271.38
0.205689	271.405
0.176915	265.208
0.15198	260.565
0.125138	259.042
0.102115	252.838
0.0733411	246.641
0.0541569	241.991
0.0234413	228.005