File: data/nitrogen-adsorption-isotherms/acs.chemmater.5b03723-si_page_23_UHM-25-Val-Boc(12)_ads.txt
# Relative Pressure (p/p0)    Quantity Adsorbed
0.00132626	 5.38311
-0.000884173	114.63
0.00132626	188.215
0.00132626	208.282
0.00353669	304.163
0.00353669	328.689
0.0123784	355.468
0.0123784	375.535
0.0145889	388.919
0.0212202	404.544
0.0477454	480.424
0.0698497	545.143
0.091954	609.862
0.12069	632.235
0.145004	638.989
0.17595	645.761
0.195844	648.044
0.229001	652.592
0.244474	652.633
0.270999	659.393
0.295314	666.147
0.317418	666.207
0.425729	673.185
0.516357	680.117
0.615827	687.072
0.73298	685.156
0.830239	689.875
0.923077	699.042