File: data/nitrogen-adsorption-isotherms/acs.inorgchem.5b02108-si_page_7_MFM-300(Ga2Fe)_ads.txt
# Relative Pressure (p/p0)    Quantity Adsorbed
0.00264405	 64.4636
0.00269937	69.6211
0.00852956	73.2285
0.0201402	75.8013
0.0356284	79.9194
0.0472224	80.9449
0.0626774	81.9684
0.0762019	82.993
0.0877848	82.987
0.10324	84.0106
0.10324	84.0106
0.122561	85.5479
0.147658	85.5349
0.174701	87.0683
0.199803	87.5711
0.199803	87.5711
0.222975	88.0749
0.253868	88.5747
0.27897	89.0775
0.302141	89.5813
0.323377	89.5704
0.352345	90.5869
0.375517	91.0908
0.398699	92.6261
0.42572	92.0964
0.452747	92.0824
0.473999	93.6188
0.499096	93.6058
0.520331	93.5949
0.55316	94.6094
0.576337	95.629
0.597573	95.6181
0.618808	95.6071
0.653563	96.1049
0.676728	96.093
0.703772	97.6263
0.723093	99.1636
0.752062	100.18
0.777147	99.1358
0.825443	102.205
0.825443	102.205
0.85247	102.191
0.798405	101.188
0.873727	104.244
0.927803	106.279
0.927803	106.279
0.900754	104.23
0.949066	108.847
0.97034	112.446
0.993606	121.718