File: data/nitrogen-adsorption-isotherms/acs.inorgchem.6b00081-si_page_9_3_ads.txt
# Relative Pressure (p/p0)    Quantity Adsorbed
0.990783	 142.632
0.970046	141.181
0.949309	142.182
0.914747	141.726
0.875576	141.274
0.822581	140.345
0.806452	140.851
0.758065	139.427
0.700461	138.012
0.658986	138.053
0.601382	137.129
0.548387	137.181
0.504608	136.243
0.453917	134.821
0.40553	134.868
0.347926	133.944
0.297235	132.522
0.260369	132.068
0.207373	130.649
0.179724	129.695
0.154378	127.758
0.129032	127.783
0.0921659	124.876
0.0645161	122.941
0.0138249	117.596
0.00230415	96.5173
0.00460829	83.2725