File: data/nitrogen-adsorption-isotherms/acs.chemmater.5b03723-si_page_33_UHM-25-Pro(17)_ads.txt
# Relative Pressure (p/p0)    Quantity Adsorbed
0.00132626	 0.487827
0.00132626	35.5538
0.00353669	40.5032
-0.000884173	45.8685
-0.000884173	49.5813
0.00353669	52.4669
0.00353669	54.5296
0.00353669	56.5923
0.00132626	65.2568
0.00574713	70.2051
0.00795756	73.5043
0.00795756	76.8047
0.0123784	77.6276
0.0145889	80.5143
0.0212202	82.1611
0.0455349	87.0996
0.0720601	89.1492
0.0985853	89.9611
0.118479	90.7764
0.145004	92.0009
0.17153	93.2254
0.200265	93.6237
0.22237	94.0253
0.244474	94.4269
0.27542	96.0617
0.295314	96.8769
0.321839	96.8638
0.423519	98.4636
0.522989	98.8269
0.624668	99.1891
0.721927	100.379
0.819187	101.156
0.918656	102.344
0.9916	103.545