File: data/nitrogen-adsorption-isotherms/acs.chemmater.5b03723-si_page_23_UHM-25-Val-Boc(12)_des.txt
# Relative Pressure (p/p0)    Quantity Adsorbed
0.00353669	 255.11
0.00353669	313.081
0.00795756	342.079
0.010168	366.611
0.0153257	402.671
0.0171677	410.108
0.0208518	423.124
0.0208518	434.272
0.0263778	449.151
0.0282199	460.305
0.116637	638.913
0.217949	661.481
0.330312	671.072
0.41873	676.883
0.499779	680.816
0.623195	686.72
0.71898	692.55
0.790819	694.601
0.917919	696.799
0.998968	697.016