File: data/nitrogen-adsorption-isotherms/acs.inorgchem.5b00535_page_2_UiO-68-triazole-A_ads.txt
# Relative Pressure (p/p0)    Quantity Adsorbed
0.0014245	 134.359
0.0014245	148.501
0.0014245	158.602
0.00320513	174.769
0.00854701	184.885
0.00854701	199.027
0.0121083	213.178
0.0121083	223.279
0.0121083	233.38
0.0192308	255.623
0.0281339	300.094
0.0423789	324.378
0.0584046	332.505
0.0690883	338.597
0.0975783	346.76
0.138533	356.98
0.165242	359.078
0.193732	363.202
0.229345	365.325
0.261396	367.439
0.288105	369.537
0.323718	371.661
0.355769	371.754
0.387821	373.867
0.412749	375.96
0.444801	378.073
0.47151	378.151
0.512464	380.29
0.537393	380.363
0.571225	382.482
0.605057	382.58
0.64245	382.689
0.672721	384.797
0.69943	386.895
0.731481	389.008
0.763533	385.061
0.797365	385.16
0.824074	387.258
0.856125	393.411
0.884615	389.454
0.913105	389.537
0.943376	393.665
0.970085	393.743
0.991453	393.805