File: data/nitrogen-adsorption-isotherms/acs.inorgchem.6b00276-si_page_38_23_des.txt
# Relative Pressure (p/p0)    Quantity Adsorbed
0.975899	 147.287
0.949032	137.972
0.899177	133.361
0.899177	133.361
0.926014	133.326
0.874247	130.277
0.8474	127.195
0.820563	127.229
0.774567	130.406
0.774567	130.406
0.74772	127.324
0.724727	130.471
0.701719	128.942
0.671043	127.424
0.649957	127.451
0.626954	127.481
0.600117	127.516
0.57327	124.434
0.550277	127.58
0.527274	127.61
0.502354	127.643
0.469756	124.568
0.450592	126.152
0.423755	126.186
0.400747	124.658
0.377739	123.129
0.354741	124.718
0.325987	124.755
0.301067	124.787
0.276142	123.261
0.249305	123.296
0.226302	123.326
0.203284	118.68
0.178369	120.271
0.155361	118.743
0.128524	118.778
0.0997548	114.14
0.0729129	112.616
0.0518267	112.643
0.0268818	104.884