File: data/nitrogen-adsorption-isotherms/acs.inorgchem.6b00081-si_page_9_2_ads.txt
# Relative Pressure (p/p0)    Quantity Adsorbed
0.00451746	 105.201
0.00292586	101.773
0.00427586	95.7859
0.0045716	75.0972
0.00572783	89.1356
0.00531332	82.3538
0.00800509	108.531
0.00676849	99.7009
0.00913661	93.5848
0.00857565	84.8443
0.00864876	77.3849
0.00654396	71.2705
0.0101364	68.2555
0.0083619	63.3944
0.0106845	61.1257
0.0062428	59.5344
0.0081724	56.0096
0.0104973	53.8328
0.00606116	52.456
0.00599905	50.0353
0.0102381	46.8532
0.00587953	45.3776
0.00781699	42.1592
0.00927897	40.0915
0.00569789	38.2992
0.00763054	34.8931
0.00909383	32.8766
0.00551625	31.2208
0.00545413	28.8001
0.00539359	26.4406
0.00898598	23.4256
0.00527407	21.783
0.0052151	19.4848
0.00867852	16.6918
0.00711383	14.7572
0.00702714	11.3789
0.00848837	9.2819
0.00491079	7.62616
0.00684197	4.16257
0.00855478	2.0295
0.00472916	0.547754
0.0164157	112.036
0.0216811	114.053
0.0326185	117.436
0.0395774	118.72
0.0512713	121.784
0.061697	123.535
0.0720318	123.926
0.0831668	124.89
0.0891906	125.935
0.0962867	124.484
0.100239	126.68
0.110482	126.641
0.130726	128.328
0.144314	128.455
0.155401	128.861
0.1661	129.203
0.168796	127.436
0.17787	130.088
0.188344	130.137
0.200267	131.189
0.209949	131.437
0.205506	129.793
0.223156	131.607
0.23284	132.285
0.243956	132.484
0.255508	133.289
0.26637	133.816
0.272332	132.291
0.277411	134.065
0.291485	134.762
0.302837	134.811
0.313287	134.843
0.324839	135.662
0.335965	136.271
0.348024	136.345
0.354817	134.878
0.358206	137.059
0.369597	136.745
0.380436	137.419
0.39156	137.96
0.402656	137.413
0.412819	137.379
0.426352	138.678
0.436038	139.41
0.447568	139.344
0.457996	138.545
0.468232	139.37
0.480489	139.798
0.491616	140.426
0.503506	140.211
0.513419	140.581
0.526407	141.111
0.536094	141.886
0.547913	142.239
0.55837	141.714
0.559468	140.88
0.57118	142.805
0.58259	143.209
0.593708	143.545
0.605209	142.996
0.612153	142.034
0.621996	143.804
0.633118	144.276
0.644234	144.505
0.654672	144.537
0.664161	143.68
0.671522	145.154
0.682645	145.656
0.693767	146.118
0.704872	145.918
0.715982	145.883
0.727117	146.872
0.738245	147.549
0.749355	147.544
0.759578	146.704
0.774614	147.873
0.785755	149.057
0.796865	149.051
0.807945	147.886
0.819008	148.502
0.82546	149.19
0.833213	148.546
0.852446	150.194
0.862586	149.133
0.874685	150.924
0.88391	149.623
0.897938	151.819
0.90751	150.898
0.919667	152.34
0.932276	151.686
0.944854	152.657
0.954694	151.497
0.963582	151.514
0.974717	152.484
0.986828	152.093
0.995562	152.973
1.00301	153.104