File: data/nitrogen-adsorption-isotherms/acs.chemmater.5b03723-si_page_25_UHM-25-Leu-Boc (13)_ads.txt
# Relative Pressure (p/p0)    Quantity Adsorbed
0.995575	 538
0.922566	531.174
0.827434	520.958
0.721239	510.725
0.626106	500.509
0.524336	488.607
0.420354	476.701
0.329646	463.141
0.298673	458.061
0.276549	456.348
0.256637	451.287
0.225664	446.207
0.196903	442.807
0.176991	437.745
0.150442	434.349
0.130531	429.288
0.0973451	422.528
0.0730088	410.755
0.0442478	388.92
0.0287611	353.698
0.0243363	348.663
0.0199115	340.275
0.0199115	331.895
0.0154867	323.508
0.0132743	313.449
0.0110619	303.389
0.00663717	274.89
0.00663717	264.834
0.00442478	196.115
0.00221239	186.056
0.00221239	177.676
0.0	157.56
0.0	142.477
0.00221239	115.665
0.00221239	90.525
0.0	1.69452