File: data/nitrogen-adsorption-isotherms/acs.inorgchem.6b01211-si_page_13_LCuPro_ads.txt
# Relative Pressure (p/p0)    Quantity Adsorbed
-0.0027896	 11.4836
-0.000275717	26.9521
-0.000324373	40.2011
-0.00466556	55.6394
-0.00259093	74.0502
-0.00262471	83.2509
-0.00267202	96.1319
-0.00489532	118.204
-0.00493587	129.245
-0.00499669	145.806
-0.00504399	158.687
-0.00509806	173.408
-0.00516563	191.81
-0.00310452	213.901
-0.0010434	235.992
-0.00107719	245.193
-0.00113125	259.914
-0.00119883	278.315
-0.00122586	285.676
-0.00127316	298.557
-0.00132722	313.278
0.0242509	348.354
0.0713322	361.443
0.105594	365.275
0.146276	370.975
0.178402	372.957
0.210522	376.779
0.259772	382.517
0.311185	382.744
0.358294	388.473
0.409687	394.22
0.51035	400.185
0.559601	405.923
0.608858	409.821
0.660251	415.569
0.707352	423.137
0.752305	432.537
0.786526	447.409
0.803637	454.845
0.816457	464.103
0.833527	482.58
0.846346	491.837
0.869823	515.863
0.893333	530.688
0.938326	529.047
0.97473	532.888
1.01543	533.068
-0.00272608	110.853