File: data/nitrogen-adsorption-isotherms/acs.chemmater.5b03723-si_page_29_UHM-25-Val(15)_des.txt
# Relative Pressure (p/p0)    Quantity Adsorbed
0.990004	 366.263
0.919232	365.143
0.815287	360.663
0.720188	356.183
0.620665	356.183
0.523355	352.823
0.419409	349.462
0.319887	342.742
0.222576	339.382
0.125265	327.061
0.0213199	301.299
0.0168967	299.059
0.0168967	296.819
0.0168967	291.219
0.0102619	287.858
0.00362703	278.898
0.00362703	271.057
0.00141543	254.256
-0.000796178	203.853
-0.000796178	199.373
-0.000796178	190.412
-0.000796178	173.611
-0.00300778	161.29