File: data/nitrogen-adsorption-isotherms/acs.inorgchem.5b02316_page_5_FJU-14-BF4-a_des.txt
# Relative Pressure (p/p0)    Quantity Adsorbed
0.977001	 110.427
0.85905	110.535
0.759048	110.626
0.664203	109.344
0.587279	109.414
0.464199	109.527
0.387294	108.684
0.271917	108.333
0.169332	109.339
0.0950004	108.038