File: data/nitrogen-adsorption-isotherms/acs.inorgchem.5b01023_page_2_FIR-28-ht_ads.txt
# Relative Pressure (p/p0)    Quantity Adsorbed
0.0033557	 5.15021
0.00671141	12.8755
0.00671141	20.6009
0.0	36.0515
0.0033557	60.515
0.0033557	64.3777
0.0033557	73.3906
0.00671141	86.2661
0.00671141	96.5665
0.0033557	48.927
0.0100671	110.73
0.0033557	118.455
0.0033557	128.755
0.0033557	146.781
0.00671141	157.082
0.0100671	169.957
0.0100671	178.97
0.0369128	203.433
0.0604027	213.734
0.0838926	218.884
0.104027	218.884
0.127517	218.884
0.147651	222.747
0.167785	224.034
0.197987	226.609
0.244966	230.472
0.302013	233.047
0.348993	235.622
0.40604	235.622
0.449664	238.197
0.503356	242.06
0.553691	242.06
0.607383	244.635
0.647651	244.635
0.701342	245.923
0.751678	248.498
0.798658	252.361
0.828859	252.361
0.85906	254.936
0.885906	254.936
0.909396	254.936
0.936242	254.936
0.966443	257.511