File: data/nitrogen-adsorption-isotherms/acs.inorgchem.6b00136_page_3_pim_ads.txt
# Relative Pressure (p/p0)    Quantity Adsorbed
0.966579	 289.22
0.941391	290.135
0.619451	289.833
0.567285	290.723
0.522321	290.68
0.473786	287.818
0.42341	289.649
0.373059	288.662
0.329894	288.622
0.317304	288.61
0.304723	287.659
0.284939	287.641
0.261574	285.741
0.268769	285.748
0.236403	284.778
0.207627	284.751
0.186052	283.792
0.162671	283.77
0.159074	283.767
0.141097	282.811
0.1375	282.807
0.112354	279.028
0.110556	279.026
0.0871746	279.004
0.0692145	276.171
0.0584401	274.282
0.0386814	271.447
0.0386983	269.569
0.0118045	260.154
0.0100313	257.336
0.00466102	254.514
0.00112304	247.938
-0.00423038	243.238
-0.00581783	219.762
-0.000177321	192.537
0.00195054	155.92
0.00211941	137.14
0.00417972	108.034
0.00254161	90.1924
-0.000903495	73.2878
0.00289625	50.7561
-0.000624847	42.3021