File: data/nitrogen-adsorption-isotherms/c4ce00408f_page_5_UHM-31_des.txt
# Relative Pressure (p/p0)    Quantity Adsorbed
0.989951	 494.475
1.00006	500.028
0.921527	492.905
0.786693	489.77
0.72026	485.443
0.62568	483.8
0.523028	479.373
0.42638	470.819
0.327764	467.784
0.229126	461.987
0.108276	446.459
0.0154633	414.435
0.0154633	414.435
0.0154411	411.673
0.0113724	406.136
0.0092713	395.081