File: data/nitrogen-adsorption-isotherms/c4ce00408f_page_5_UHM-31_ads.txt
# Relative Pressure (p/p0)    Quantity Adsorbed
0.949686	 491.601
0.830927	485.748
0.726296	485.459
0.321716	466.386
0.307654	469.11
0.279484	469.032
0.253271	462.053
0.235162	462.003
0.204947	457.776
0.190862	457.737
0.162681	456.278
0.130454	452.045
0.102262	449.205
0.0740259	440.84
0.049836	435.248
0.0377522	433.834
0.0031349	382.633
0.00307932	375.727
0.00299038	364.677
0.0029348	357.771
0.00476905	335.676
0.000177867	265.221
-0.00598077	0.0111167