File: data/nitrogen-adsorption-isotherms/c4dt03702b_page_4_MOF-2_ads.txt
# Relative Pressure (p/p0)    Quantity Adsorbed
0.0360019	 1.63045
0.0505668	4.87625
0.0690787	7.82964
0.0915425	10.7245
0.118257	12.848
0.12585	12.8592
0.146976	14.8476
0.179857	16.6471
0.210195	18.0417
0.24195	19.2923
0.273591	19.9941
0.306559	21.1345
0.342156	21.9825
0.379081	23.2691
0.409399	23.737
0.442363	24.6727
0.471372	25.5712
0.503009	26.0763
0.538603	26.7409
0.57156	27.3629
0.609784	27.8308
0.644056	28.2987
0.680644	28.5437
0.715242	29.5853
0.750828	29.9069
0.782779	30.4208
0.816744	31.2228
0.848385	31.9246
0.856291	31.9246
0.880018	32.2755
0.914287	32.6264
0.957775	32.7434
0.990729	33.2112
0.998636	33.2112