File: data/nitrogen-adsorption-isotherms/c4dt02048k_page_4_Er-DADQ_des.txt
# Relative Pressure (p/p0)    Quantity Adsorbed
0.989872	 93.0649
0.980946	90.4842
0.957143	85.792
0.93334	82.5075
0.88276	79.223
0.88276	79.223
0.902099	80.1614
0.857469	77.3461
0.827716	75.7038
0.778623	72.6539
0.778623	72.6539
0.806889	74.5308
0.759283	71.9501
0.731017	70.777
0.704239	68.9002
0.683412	67.7271
0.655146	66.7887
0.631343	64.9118
0.603078	64.4426
0.580763	63.2695
0.552497	61.8619
0.528694	60.2196
0.504891	59.5158
0.479601	54.3544
0.457286	52.7121
0.434971	51.7736
0.408193	50.366
0.379927	48.4891
0.354637	48.0199
0.326371	45.9084
0.302568	45.6738
0.278766	43.7969
0.256451	43.3277
0.23116	42.1547
0.204382	40.5124
0.177604	39.3393
0.156777	38.1663
0.101733	35.351
0.101733	35.351
0.132974	36.9932
0.0541274	31.8318
0.0481767	31.8318
0.0169356	28.5473
0.0169356	28.5473