File: data/nitrogen-adsorption-isotherms/c4dt03702b_page_4_MOF-1_ads.txt
# Relative Pressure (p/p0)    Quantity Adsorbed
0.00812121	 12.4059
0.0072145	11.0917
0.00718829	9.87004
0.00501749	0.82144
0.0102847	16.7291
0.0135589	18.5995
0.0143603	20.6748
0.0173852	22.6854
0.021538	24.7599
0.0254182	26.9774
0.0266262	29.1108
0.0295816	31.1494
0.0245865	22.3334
0.0334606	33.3087
0.0359541	35.5242
0.0373518	37.6711
0.0403035	39.5362
0.0439887	41.4922
0.046859	43.6043
0.0480348	45.5219
0.0520881	48.1361
0.0455361	46.7793
0.0550818	49.9463
0.0473594	39.6346
0.064764	52.3936
0.0766839	55.2008
0.0925446	57.4231
0.117622	59.2946
0.151914	60.6982
0.199383	62.1018
0.207297	62.4527
0.248162	63.1545
0.29462	64.2183
0.34111	65.3476
0.386597	66.4933
0.431108	67.4933
0.481514	68.301
0.52766	69.4706
0.57348	70.0666
0.620586	70.6403
0.664738	70.9619
0.705601	71.576
0.746459	71.9269
0.789952	72.2778
0.830815	72.8626
0.838721	72.8626
0.871675	73.3305
0.909902	73.9153
0.952085	74.6171
0.995585	75.2923