File: data/nitrogen-adsorption-isotherms/c4dt02048k_page_4_Er-DADQ_ads.txt
# Relative Pressure (p/p0)    Quantity Adsorbed
-0.00124516	 24.1004
0.00381441	21.1681
0.0145555	25.978
0.0310265	28.1724
0.0500463	29.5501
0.0689564	31.3441
0.0864278	31.9748
0.0994685	33.1633
0.119932	34.232
0.13802	34.9786
0.152819	35.4293
0.175018	36.1887
0.200505	37.8023
0.225171	39.2862
0.249836	40.5828
0.275324	41.5955
0.300811	42.8302
0.325477	44.1124
0.350965	45.2779
0.376452	46.4607
0.401118	47.6276
0.425783	48.9963
0.451271	50.2698
0.471825	52.1801
0.478403	51.0132
0.501424	52.5115
0.526089	53.5632
0.550754	54.6005
0.57542	55.8971
0.60173	56.9488
0.625573	58.205
0.651061	59.2826
0.675726	61.0691
0.696372	62.236
0.714163	63.1742
0.728346	63.6582
0.750544	64.9473
0.772013	66.1114
0.790174	67.0219
0.803164	67.5665
0.825363	68.8631
0.845424	70.1726
0.8638	71.2618
0.900017	73.8291
0.920736	75.7351
0.936357	77.0155
0.95239	79.3547
0.965603	82.3014
0.981577	84.3791
0.988155	90.3002
-0.00257069	18.6486
-0.00514139	17.4324
0.0	14.5946
0.0	12.973
0.0	11.3514
0.0	7.7027
0.0	6.08108
0.0	3.24324
0.0	2.83784