File: data/nitrogen-adsorption-isotherms/c4ra13058h-si_page_4_2a_ads.txt
# Relative Pressure (p/p0)    Quantity Adsorbed
0.0553172	 2.26631
0.0645332	2.5978
0.0816704	2.50363
0.0919527	2.48928
0.115945	3.00902
0.126227	2.94803
0.152504	3.35746
0.163929	3.35746
0.182209	3.84089
0.192491	3.84089
0.218768	4.18619
0.22905	4.18619
0.246187	4.46243
0.25647	4.46243
0.294172	4.94585
0.304454	4.96558
0.321591	5.22209
0.331873	5.22209
0.35815	5.52345
0.368433	5.5378
0.394927	5.83048
0.405635	5.78896
0.433554	6.05082
0.444408	6.01629
0.462116	6.32706
0.472398	6.32706
0.498675	6.32706
0.508958	6.32706
0.535235	6.6033
0.545517	6.6033
0.571794	6.87954
0.582076	6.87954
0.608353	6.9486
0.618636	6.9486
0.635773	7.07416
0.647198	6.99464
0.676902	7.40691
0.688327	7.44737
0.713461	7.77732
0.724886	7.77732
0.740881	8.05356
0.751163	8.05356
0.77744	8.05356
0.788865	8.06891
0.814	8.32981
0.824282	8.32981
0.850559	8.60605
0.860841	8.60605
0.887118	8.81323
0.897401	8.81323
0.923678	9.0518
0.93396	9.08947
0.960237	9.42849
0.972804	9.31548
0.985372	9.3406
0.992226	9.43477