File: data/nitrogen-adsorption-isotherms/c5dt01100k-si_page_17_CAU-13_des.txt
# Relative Pressure (p/p0)    Quantity Adsorbed
0.0916236	 119.869
0.0983262	120.158
0.106349	120.56
0.114395	120.462
0.120718	120.505
0.128685	121.104
0.136712	121.216
0.14358	121.047
0.151021	121.658
0.158467	121.802
0.166079	121.454
0.172781	121.799
0.180804	122.196
0.18885	122.118
0.195172	122.146
0.203141	122.61
0.211057	122.617
0.218038	122.426
0.225479	122.976
0.232926	123.027
0.24068	122.81
0.247188	123.025
0.255263	123.468
0.263309	123.321
0.269731	123.3
0.277601	123.77
0.285518	123.63
0.292499	123.4
0.29966	123.831
0.307387	124.028
0.315141	123.825
0.32165	124.019
0.329725	124.348
0.33781	124.118
0.344195	124.068
0.352065	124.538
0.359795	124.489
0.366963	124.168
0.374123	124.701
0.38185	124.918
0.389605	124.608
0.396113	124.814
0.404189	125.126
0.412269	125.076
0.418781	124.931
0.426527	125.446
0.434256	125.48
0.441423	125.295
0.448585	125.615
0.456313	125.695
0.464191	125.397
0.470575	125.531
0.478653	125.884
0.486734	125.707
0.493246	125.581
0.500991	126.242
0.508719	126.333
0.515886	126.114
0.523047	126.52
0.530775	126.668
0.538752	126.337
0.545075	126.392
0.553115	126.83
0.561143	126.793
0.56785	126.656
0.575453	127.122
0.582899	127.219
0.59035	126.882
0.597326	127.118
0.605239	127.38
0.613216	127.077
0.61961	127.095
0.627578	127.616
0.635606	127.635
0.642313	127.483
0.649916	128.002
0.657363	128.015
0.664976	127.618
0.671678	127.902
0.679703	128.204
0.687748	128.084
0.694072	128.091
0.70204	128.562
0.709956	128.546
0.716937	128.374
0.724378	128.966
0.731823	129.184
0.739433	129.032
0.746084	129.279
0.754157	129.812
0.762239	129.852
0.768624	129.886
0.776493	130.431
0.783938	130.641
0.792019	130.639
0.798528	130.604
0.806271	131.371
0.813715	131.73
0.821163	131.622
0.828025	132.139
0.836043	133.021
0.844014	133.26
0.850335	133.477
0.858367	134.657
0.866238	135.069
0.872656	135.439
0.880683	137.096
0.888401	138.126
0.895562	138.537
0.902525	140.057
0.91042	142.041
0.918278	143.577
0.924207	144.301
0.931351	147.413
0.935355	148.892
0.940123	150.163
0.946177	153.885
0.951754	156.981
0.950753	153.322
0.956417	161.169
0.952893	159.008
0.961984	167.171
0.961083	165.634
0.96098	162.514
0.961	160.657
0.966482	167.225