File: data/nitrogen-adsorption-isotherms/c5dt01100k-si_page_11_UiO-66 three pumps_des.txt
# Relative Pressure (p/p0)    Quantity Adsorbed
0.0955302	 204.557
0.102963	206.718
0.110903	208.908
0.119449	207.203
0.126445	209.079
0.134656	211.645
0.143253	209.893
0.149054	210.427
0.157708	213.157
0.166206	212.761
0.172025	212.117
0.180761	215.559
0.188967	214.509
0.195776	213.409
0.20521	216.853
0.213102	216.027
0.220574	214.733
0.22966	218.703
0.237033	218.386
0.245024	216.916
0.252851	219.689
0.260047	220.504
0.268775	218.514
0.276252	220.369
0.284147	221.92
0.292608	219.825
0.298544	220.224
0.307197	222.1
0.315527	220.966
0.322179	224.341
0.330249	223.335
0.337701	224.32
0.34527	225.768
0.353999	224.683
0.360636	225.202
0.369363	222.479
0.37705	224.946
0.384386	225.945
0.393812	223.774
0.401498	225.446
0.409183	226.569
0.418958	223.848
0.426955	226.418
0.434329	227.365
0.443407	225.06
0.450883	226.57
0.458778	228.493
0.467239	226.202
0.473344	226.759
0.481829	229.117
0.490308	227.333
0.496145	226.522
0.50488	229.797
0.513134	228.877
0.519895	227.814
0.528631	231.145
0.535266	231.144
0.543995	229.108
0.551682	231.697
0.559366	232.569
0.568443	230.041
0.575748	231.674
0.583814	233.031
0.593589	230.477
0.601588	233.59
0.608962	234.494
0.618738	232.996
0.62617	234.767
0.634109	235.791
0.643886	234.292
0.651882	236.047
0.659257	237.088
0.668333	234.393
0.67581	236.831
0.683706	238.382
0.692167	236.718
0.698273	237.553
0.706758	239.784
0.715238	238.65
0.721074	238.188
0.72981	241.574
0.737493	241.23
0.745174	239.481
0.753406	243.138
0.760547	243.61
0.769791	242.129
0.776787	243.699
0.784998	246.293
0.792681	246.343
0.800362	244.533
0.810147	249.034
0.818471	249.271
0.824998	248.417
0.833901	252.993
0.841237	254.431
0.849967	253.262
0.857274	256.395
0.866273	258.762
0.872859	259.369
0.882118	267.689
0.889805	270.711
0.898074	272.862
0.905182	277.478
0.912432	283.44
0.920638	299.779
0.926371	308.591
0.933034	319.84
0.9359	337.013
0.941329	362.249
0.943639	376.63
0.946302	389.688
0.949774	415.046
0.948834	398.863
0.951525	449.431
0.951781	432.928
0.955224	477.713
0.955818	459.534
0.957104	500.992
0.96119	520.493
0.96775	561.892
0.976093	567.645