File: data/nitrogen-adsorption-isotherms/c5dt01100k-si_page_11_UiO-66 three pumps_ads.txt
# Relative Pressure (p/p0)    Quantity Adsorbed
0.00107052	 88.8247
0.003633	34.9343
0.00633899	109.892
0.00630657	86.9795
0.00611287	55.8613
0.00585488	14.5741
0.0108565	155.562
0.00811634	131.894
0.0176985	174.789
0.024168	180.355
0.0330828	187.183
0.0406207	190.443
0.0472345	191.96
0.0561436	194.713
0.0631354	197.268
0.0710757	199.291
0.079589	199.622
0.0857461	200.792
0.0906386	203.015
0.105747	202.57
0.111856	203.644
0.130782	205.837
0.136395	206.732
0.155206	208.037
0.160871	208.535
0.180355	210.335
0.185262	210.14
0.20468	212.485
0.21004	212.363
0.228955	213.907
0.234935	213.755
0.254976	215.571
0.260439	215.289
0.278465	217.041
0.285117	216.329
0.304651	217.963
0.310265	217.938
0.328775	218.509
0.33505	218.729
0.353922	219.622
0.360196	219.187
0.380013	221.356
0.385706	221.19
0.403501	222.198
0.409913	221.875
0.428891	223.2
0.434939	222.895
0.453812	223.475
0.460086	223.291
0.479496	225.68
0.485011	225.648
0.504642	226.201
0.510158	226.449
0.528859	227.722
0.534951	227.485
0.553926	227.42
0.559975	227.477
0.57906	229.752
0.584788	230.159
0.603523	229.975
0.609912	230.295
0.628446	232.027
0.634497	232.215
0.65492	232.574
0.660228	232.583
0.678747	234.294
0.684791	234.045
0.704213	236.221
0.709826	236.382
0.72936	237.685
0.734744	237.836
0.7547	240.121
0.75979	240.316
0.765436	243.513
0.780402	242.757
0.785564	242.406
0.792677	243.838
0.808086	245.598
0.817829	247.946
0.830138	247.053
0.841231	250.23
0.851005	246.822
0.861145	254.795
0.870918	250.809
0.881411	261.577
0.889099	264.821
0.896853	265.838
0.904468	266.866
0.911639	274.803
0.920554	281.104
0.927376	284.029
0.935836	292.114
0.937945	301.853
0.94465	307.511
0.9483	320.737
0.953308	332.095
0.955393	352.308
0.959045	364.952
0.962536	390.719
0.964681	406.042
0.968162	417.591
0.970248	435.213
0.972134	452.027
0.973693	501.461
0.974266	518.896
0.974251	467.226
0.97532	481.817
0.977945	544.574
0.978137	498.17
0.979358	514.986
0.982745	546.453
0.996055	573.53