File: data/nitrogen-adsorption-isotherms/c5dt01100k-si_page_11_UiO-66 two pump_ads.txt
# Relative Pressure (p/p0)    Quantity Adsorbed
0.000224052	 231.082
-0.00083903	220.234
-0.000366981	60.1862
-0.00145729	30.0942
-0.000610721	22.5535
0.00472207	201.288
0.00366006	191.192
0.00616543	234.069
0.00405157	221.066
0.00503565	176.081
0.00465917	156.826
0.00485962	133.943
0.00321497	123.447
0.00472559	80.3476
0.00313375	66.0432
0.00485041	45.1468
0.00378608	33.4218
0.0052788	101.091
0.0051704	24.4703
0.00867226	263.453
0.00688524	249.135
0.0146462	273.109
0.0124914	262.051
0.022194	290.426
0.0271267	296.814
0.0338882	302.99
0.0433722	311.294
0.0489653	311.758
0.0571224	314.858
0.0655028	319.643
0.0722965	321.618
0.0814703	322.713
0.0885423	325.821
0.105755	327.419
0.11324	330.416
0.117364	332.017
0.13152	332.228
0.13705	332.841
0.155436	335.263
0.160605	335.645
0.178142	339.224
0.184588	337.648
0.200809	342.448
0.209146	340.253
0.22467	345.167
0.233246	342.778
0.237168	341.843
0.2494	347.462
0.258322	345.277
0.262317	343.751
0.273501	349.528
0.282147	347.779
0.286244	346.724
0.29865	351.924
0.307501	349.681
0.311916	348.175
0.322751	354.067
0.331084	352.433
0.335667	349.773
0.346502	355.971
0.354981	354.321
0.360204	351.985
0.37165	357.823
0.380352	356.181
0.385264	353.179
0.396099	359.396
0.404306	358.786
0.410063	354.882
0.419851	361.632
0.427953	361.29
0.434163	356.711
0.443602	363.258
0.451147	364.047
0.458614	359.242
0.468053	365.608
0.475349	366.278
0.483063	360.476
0.492502	367.569
0.499798	367.708
0.507863	363.338
0.517651	369.366
0.524287	370.038
0.533011	365.024
0.540913	371.218
0.548388	372.401
0.556763	367.276
0.566062	374.042
0.573187	374.186
0.58261	369.67
0.590513	376.192
0.597987	376.715
0.60776	372.744
0.615592	378.711
0.622787	379.221
0.63291	375.763
0.641145	381.57
0.647588	382.472
0.657361	378.502
0.665262	384.174
0.672388	385.234
0.682511	381.576
0.690203	387.376
0.69684	388.27
0.707931	385.236
0.715562	390.495
0.72199	391.476
0.733188	388.084
0.741047	394.223
0.747141	395.217
0.755866	391.237
0.763948	398.364
0.771245	399.725
0.780206	397.785
0.78821	401.045
0.795699	404.964
0.804724	403.572
0.812465	406.333
0.820232	410.208
0.827488	410.44
0.832731	413.572
0.844962	418.252
0.854292	418.873
0.861523	423.128
0.870595	426.127
0.875959	428.539
0.884451	435.944
0.891791	439.899
0.899827	441.989
0.907661	450.211
0.923509	466.039
0.948044	515.737
0.954051	531.56
0.958498	550.317
0.962127	568.286
0.963327	588.316
0.967066	603.507
0.968065	620.485
0.969729	631.57
0.971328	653.263
0.973164	685.997
0.972559	669.876
0.974926	697.446
0.975216	712.505
0.976995	736.727
0.978334	761.177
0.979061	803.151
0.978537	780.991
0.979616	821.97
0.980016	839.102
0.981999	890.952
0.981669	865.879
0.983412	916.408
0.983968	944.338
0.9849	989.168
0.984386	965.675
0.981955	851.98
0.985464	1041.64
0.985201	1010.12
0.986171	1063.26
0.986657	1027.71
0.986947	1083.19
0.990391	1260.39
0.990978	1181.53
0.990958	1167.69
0.991989	1284.78
0.994266	1234.86
0.993795	1197.97
0.993832	1224.24
0.995632	1261.93
0.994569	1251.13
0.996716	1287.95
0.996004	1278.02