File: data/nitrogen-adsorption-isotherms/c5dt01100k-si_page_17_CAU-13_ads.txt
# Relative Pressure (p/p0)    Quantity Adsorbed
0.00449307	 99.4121
0.00221422	94.3706
0.00233306	97.3713
0.010697	103.537
0.0110819	102.345
0.0178235	105.062
0.0255603	106.484
0.0327851	107.86
0.0390265	108.705
0.0471928	109.533
0.0549244	110.321
0.0611386	110.672
0.0692098	111.42
0.0769352	111.788
0.0836728	111.776
0.0915402	112.477
0.0989842	112.78
0.106859	112.807
0.113592	113.217
0.121317	113.641
0.129398	113.691
0.135575	113.802
0.14365	114.391
0.151095	114.656
0.158283	114.248
0.165985	115.084
0.17343	115.303
0.180878	115.139
0.188323	115.423
0.195767	115.669
0.203213	115.823
0.210661	115.724
0.218103	116.27
0.225547	116.554
0.232995	116.408
0.240437	116.954
0.247882	117.191
0.25533	117.102
0.262775	117.302
0.270219	117.623
0.277947	117.694
0.284518	117.422
0.292554	118.195
0.299999	118.432
0.30759	118.327
0.31489	118.776
0.322336	118.864
0.330419	118.751
0.336599	118.839
0.344674	119.213
0.35259	119.221
0.359142	119.047
0.367011	119.663
0.374456	119.835
0.382332	119.711
0.389066	120.053
0.396793	120.258
0.404876	120.129
0.411056	120.23
0.419131	120.597
0.42686	120.642
0.433599	120.442
0.44113	120.941
0.455537	120.829
0.461875	121.07
0.469898	121.503
0.477813	121.588
0.484266	121.482
0.492234	122.01
0.499679	122.172
0.507434	121.967
0.514572	122.386
0.522018	122.483
0.530101	122.324
0.536281	122.399
0.544356	122.812
0.552084	122.922
0.558823	122.757
0.566693	123.244
0.574139	123.36
0.582016	123.124
0.589031	123.555
0.596476	123.764
0.604556	123.726
0.610736	123.729
0.618814	124.141
0.62673	124.135
0.633282	123.979
0.641151	124.535
0.648597	124.698
0.656572	124.558
0.663021	124.82
0.670933	125.195
0.679012	125.247
0.685192	125.267
0.69327	125.599
0.700716	125.734
0.708007	125.304
0.715608	126.013
0.723052	126.315
0.731025	126.319
0.73766	126.691
0.745385	127.065
0.753464	127.104
0.759643	127.197
0.76772	127.749
0.775164	127.986
0.782613	127.807
0.790053	128.498
0.797497	128.857
0.80547	128.895
0.812104	129.307
0.819829	129.747
0.827488	129.664
0.834715	130.529
0.842156	131.084
0.849964	131.455
0.85704	132.11
0.864479	132.888
0.87236	133.039
0.879358	134.353
0.886794	135.365
0.894231	136.377
0.901528	136.854
0.9091	138.775
0.916532	140.254
0.92397	141.093
0.930111	143.001
0.935957	145.224
0.94012	146.407
0.946538	149.286
0.949495	151.027
0.956739	155.888
0.953627	153.577
0.95332	150.599
0.961015	159.219
0.961184	155.995
0.963356	161.913
0.965698	164.539
0.970145	169.818
0.968214	166.736
0.972891	174.437
0.974195	172.029
0.974696	178.053
0.974101	170.197
0.976355	181.235
0.977338	184.315
0.977101	174.611
0.978666	186.727
0.979656	189.191
0.981942	192.475
0.984498	208.319
0.982433	196.959
0.983551	194.357
0.985056	219.649
0.983929	201.254
0.985308	212.732
0.984693	203.735
0.986008	215.988
0.986407	223.124
0.988929	208.661
0.98932	219.734