File: data/nitrogen-adsorption-isotherms/c5dt01100k-si_page_28_STA-12(Cd)_des.txt
# Relative Pressure (p/p0)    Quantity Adsorbed
0.0892952	 39.0082
0.100383	39.4694
0.111468	39.7437
0.122555	40.1427
0.133641	40.4294
0.144727	40.7535
0.155814	41.0777
0.166899	41.2896
0.177986	41.6886
0.18907	41.8382
0.200156	42.1124
0.211241	42.3244
0.222327	42.6859
0.233412	42.8979
0.244498	43.1472
0.255583	43.3716
0.266667	43.5087
0.277752	43.6833
0.288836	43.8204
0.299922	44.1695
0.311007	44.3565
0.322093	44.6308
0.333177	44.7305
0.344262	44.905
0.355346	45.0796
0.366431	45.2458
0.377516	45.4411
0.3886	45.624
0.399685	45.8027
0.410769	45.9298
0.421854	46.1268
0.432939	46.3512
0.444024	46.5257
0.455108	46.6629
0.466193	46.8125
0.47728	47.2364
0.488365	47.5106
0.499451	47.735
0.510535	47.8622
0.52162	48.0592
0.532704	48.1838
0.543789	48.4332
0.554876	48.8072
0.56596	48.9319
0.577045	49.1064
0.588129	49.2685
0.599215	49.5801
0.6103	49.7422
0.621387	50.1786
0.632473	50.4902
0.643559	50.8144
0.654645	51.0762
0.66573	51.3255
0.676819	51.899
0.687906	52.273
0.698993	52.7218
0.710079	53.0335
0.721168	53.6444
0.732257	54.2179
0.743346	54.8412
0.754438	55.6516
0.765528	56.412
0.776621	57.4219
0.787715	58.4442
0.798807	59.4041
0.809905	60.8378
0.821002	62.2715
0.832102	63.8673
0.843206	65.9368
0.853301	67.8969
0.863402	70.3875
0.873498	72.4833
0.883104	75.8219
0.893718	79.2391
0.901366	81.1251
0.907883	85.0629
0.914967	88.1583
0.922809	91.4634
0.929152	95.9672
0.936095	99.3251
0.937269	101.45
0.942854	105.8
0.948987	110.573
0.945394	107.788
0.953536	115.879
0.958706	121.22
0.955574	118.074
0.961694	125.388
0.965682	131.184
0.96323	127.879