File: data/nitrogen-adsorption-isotherms/c5dt01100k-si_page_28_STA-12(Cd)_ads.txt
# Relative Pressure (p/p0)    Quantity Adsorbed
0.0348346	 33.7471
0.0459245	34.4328
0.0570119	34.8691
0.0681001	35.3927
0.0791874	35.8291
0.0902749	36.2779
0.101361	36.6145
0.112448	37.001
0.123534	37.3376
0.134621	37.7365
0.145707	38.0233
0.156793	38.3599
0.167879	38.6217
0.178965	38.9334
0.190052	39.2949
0.201137	39.5941
0.212224	39.9183
0.223309	40.1177
0.234394	40.3795
0.245479	40.5291
0.256565	40.8782
0.26765	41.0527
0.278735	41.3021
0.28982	41.4642
0.300905	41.6886
0.311989	41.8132
0.323074	42.0376
0.334161	42.3992
0.345246	42.6859
0.356331	42.848
0.367415	42.9602
0.3785	43.1971
0.389585	43.3342
0.400669	43.5337
0.411754	43.6708
0.422838	43.8453
0.433923	43.9825
0.445008	44.2069
0.456093	44.4687
0.467178	44.6308
0.478264	44.9424
0.489349	45.1419
0.500433	45.2915
0.511518	45.4536
0.522603	45.7029
0.533688	45.9149
0.544773	46.1268
0.555859	46.426
0.566944	46.613
0.57803	46.9122
0.589115	47.1366
0.600201	47.4608
0.611286	47.5979
0.622372	47.922
0.633458	48.2586
0.644544	48.5579
0.65563	48.9069
0.666715	49.0815
0.677803	49.5926
0.688889	49.9168
0.699976	50.3032
0.711063	50.7022
0.72215	51.1011
0.733239	51.6621
0.744325	52.0486
0.755415	52.672
0.766503	53.1831
0.777593	53.8688
0.788683	54.5919
0.799774	55.4396
0.810866	56.3123
0.82196	57.3346
0.833052	58.2821
0.84415	59.7407
0.855245	60.9874
0.866349	62.9946
0.87745	64.8272
0.88856	67.4578
0.899669	69.9886
0.908261	72.75
0.914837	75.4242
0.921414	78.1212
0.929455	80.7185
0.935586	84.7037
0.940991	87.7616
0.946746	92.1777
0.950578	95.2771
0.954375	99.3316
0.960992	105.995
0.956921	102.029
0.964568	110.84
0.969842	118.854
0.96662	114.508
0.975843	129.673
0.972762	123.936
0.973796	126.576
0.977914	135.181
0.982307	146.051
0.979968	139.021
0.980508	142.484
0.986296	157.719
0.984124	151.352
0.984661	154.552
0.989353	170.094
0.990969	180.306
0.987254	161.866
0.988301	165.66
0.99062	175.753