File: data/nitrogen-adsorption-isotherms/c5dt01100k-si_page_11_UiO-66 two pump_des.txt
# Relative Pressure (p/p0)    Quantity Adsorbed
0.0958731	 329.334
0.102987	332.33
0.111081	334.664
0.119462	334.108
0.125657	335.015
0.134137	338.899
0.142751	337.958
0.148805	338.292
0.157192	342.133
0.16562	341.692
0.171695	341.523
0.180246	345.09
0.188582	343.685
0.194989	343.11
0.203299	346.881
0.21163	346.524
0.218149	345.694
0.227051	349.34
0.235325	348.958
0.242249	347.925
0.251501	351.467
0.259592	351.533
0.2667	350.412
0.275952	353.928
0.284042	353.948
0.291317	352.974
0.299283	355.286
0.306815	355.853
0.314369	354.237
0.3226	357.406
0.329742	358.587
0.337422	356.611
0.344728	358.576
0.352794	360.322
0.361096	358.301
0.367411	359.207
0.375846	361.502
0.384271	360.725
0.390281	361.056
0.398899	363.681
0.407326	362.614
0.413643	362.123
0.421952	365.305
0.430225	364.765
0.436802	364.127
0.445703	367.43
0.453977	366.716
0.460902	365.74
0.469455	369.167
0.477544	368.525
0.48482	367.963
0.49305	370.879
0.500051	371.28
0.507873	370.448
0.515871	372.916
0.522896	374.159
0.532323	372.048
0.539601	374.005
0.547694	375.454
0.556241	374.199
0.563223	376.017
0.571446	377.969
0.580692	376.92
0.58783	378.351
0.595897	380.263
0.604199	379.22
0.610608	380.071
0.618951	382.887
0.627375	382.03
0.633773	382.533
0.642004	385.51
0.650385	384.971
0.656855	384.397
0.665058	388.023
0.672869	388.324
0.680424	387.152
0.688048	390.035
0.695098	391.778
0.703479	390.637
0.710566	392.392
0.718851	394.737
0.727273	393.671
0.733519	394.565
0.741906	398.305
0.750388	398.445
0.756795	398.329
0.764963	402.873
0.772649	404.562
0.780989	404.361
0.787085	405.045
0.795706	409.574
0.803928	410.902
0.811074	410.536
0.820162	416.201
0.827499	417.834
0.83623	418.082
0.843512	421.904
0.85161	427.293
0.859996	430.056
0.866668	430.964
0.874677	439.359
0.882367	444.159
0.889707	448.202
0.897746	452.425
0.904993	456.236
0.913141	472.412
0.921495	483.834
0.927667	487.822
0.934845	508.692
0.939006	518.268
0.945119	546.832
0.941868	535.062
0.950755	580.727
0.950068	571.621
0.955641	616.037
0.954677	603.905
0.959727	651.474
0.960295	641.228
0.962565	682.248
0.963132	671.913
0.964587	716.72
0.966907	750.419
0.965739	704.427
0.968849	790.551
0.967164	740.252
0.971	832.705
0.969379	775.246
0.969017	717.035
0.973156	875.253
0.971604	817.668
0.973881	922.676
0.971163	753.091
0.974264	864.075
0.972001	851.465
0.974742	1020.02
0.974556	970.514
0.976127	911.312
0.974157	894.373
0.973315	792.813
0.976951	1054.13
0.978486	1090.33
0.97564	955.321
0.975275	943.94
0.975821	835.794
0.979642	1123.25
0.97641	1005.6
0.976392	992.62
0.977508	1041.22
0.979372	1075.15
0.977627	878.366
0.982296	1180.84
0.981584	1163.31
0.978042	924.804
0.982003	1115.12
0.984142	1212.88
0.981499	1146.89
0.986254	1243.63
0.985301	1200.85
0.982818	1091.32
0.987445	1235.35