File: data/nitrogen-adsorption-isotherms/c5nj02634b_page_6_4_des.txt
# Relative Pressure (p/p0)    Quantity Adsorbed
0.960289	 370.707
0.900244	369.752
0.845024	371.878
0.780153	367.843
0.720115	367.917
0.684107	370.019
0.624062	369.064
0.573638	370.155
0.520789	368.163
0.484759	367.179
0.448737	367.223
0.403108	367.279
0.381494	367.306
0.352668	366.313
0.30704	366.369
0.268578	361.273
0.234957	361.314
0.206124	359.292
0.174904	359.331
0.122049	356.31
0.0907995	352.233
0.0547397	347.133
0.0210147	332.772
0.0160116	305
0.00377423	273.122