File: data/nitrogen-adsorption-isotherms/c5nj03044g_page_2_1_des.txt
# Relative Pressure (p/p0)    Quantity Adsorbed
0.960591	 17.6092
0.923645	17.4492
0.901478	17.1207
0.862069	16.9611
0.837438	16.4669
0.79064	16.1424
0.741379	15.8184
0.694581	14.9956
0.637931	14.3405
0.593596	13.6835
0.544335	13.0272
0.495074	12.2048
0.445813	11.7146
0.394089	10.7266
0.352217	9.73684
0.29803	9.08139
0.248768	7.42844
0.197044	6.27424
0.147783	5.28575
0.100985	3.63239