File: data/nitrogen-adsorption-isotherms/c5nj02634b_page_6_4_ads.txt
# Relative Pressure (p/p0)    Quantity Adsorbed
-0.00321674	 123.291
-0.00375132	104.358
-0.00387887	86.6549
-0.00400105	69.695
-0.00412324	52.7351
-0.00385762	34.337
-0.00444283	8.37591
0.000440315	244.026
-0.000114078	222.343
-0.00143683	204.544
-0.00154794	189.122
-0.00165745	173.922
-0.00177461	157.66
-0.00189013	141.626
0.00604644	273.935
0.0103482	292.855
0.0190002	314.726
0.0425106	335.686
0.0776136	344.544
0.112692	349.959
0.14776	353.947
0.184088	356.049
0.221052	357.889
0.256101	359.21
0.291145	359.973
0.326196	361.542
0.361234	361.375
0.39628	362.324
0.431327	363.459
0.466366	363.416
0.501412	364.365
0.536458	365.315
0.571498	365.395
0.606545	366.469
0.641579	365.743
0.676268	366.252
0.706905	369.322
0.749907	369.269
0.788528	369.017
0.815209	369.529
0.855028	369.759
0.883699	370.078
0.925109	370.148
0.960144	369.521
0.993599	370.742