File: data/nitrogen-adsorption-isotherms/c5nj03044g_page_2_1_ads.txt
# Relative Pressure (p/p0)    Quantity Adsorbed
0.0331235	 0.83414
0.0539203	1.54053
0.074717	2.06448
0.0955137	2.32184
0.11631	2.85946
0.137107	3.32918
0.157904	3.80388
0.178701	4.23221
0.199497	4.71791
0.220294	5.15758
0.241879	5.67189
0.260123	5.96264
0.282684	6.46368
0.303481	6.83115
0.324278	7.15226
0.345074	7.49269
0.365083	7.72795
0.386668	8.13297
0.407465	8.36695
0.428261	8.79257
0.449058	9.18902
0.469855	9.42899
0.490651	9.77328
0.511448	10.0619
0.532245	10.4387
0.553042	10.8004
0.573838	11.0432
0.594635	11.4194
0.615621	11.6365
0.636229	12.108
0.657025	12.4812
0.677822	12.6748
0.698619	13.0365
0.719415	13.3576
0.740212	13.6671
0.761009	13.8491
0.779915	14.1583
0.802602	14.8202
0.823399	14.991
0.845816	15.5474
0.865533	15.6317
0.885339	16.0564
0.90835	16.3621
0.926302	16.7587
0.94899	17.0415
0.969291	17.1587
0.989773	17.5679