File: data/nitrogen-adsorption-isotherms/c5sc03494a-si_page_29_[(Cp2Co)1.8(TEA)1.2][In3(BTC)4]_ads.txt
# Relative Pressure (p/p0)    Quantity Adsorbed
-0.00225225	 9.59028
0.00675676	20.3741
0.0045045	29.3548
0.0045045	38.9356
0.0045045	47.9177
0.0045045	58.0973
0.00225225	67.078
0.0045045	77.8578
0.00225225	86.8385
0.0045045	96.4207
0.0045045	105.403
0.00225225	113.785
0.0	120.969
0.0045045	128.756
0.0045045	131.151
0.0045045	132.948
0.0045045	135.942
0.0135135	140.737
0.0225225	144.934
0.0608108	148.55
0.0608108	148.55
0.0675676	149.153
0.0923423	149.767
0.146396	150.997
0.204955	152.229
0.252252	154.054
0.304054	154.684
0.353604	156.51
0.403153	158.336
0.45045	159.562
0.502252	160.791
0.551802	162.018
0.603604	163.845
0.653153	165.671
0.702703	167.497
0.756757	169.925
0.801802	172.347
0.851351	174.772
0.903153	177.797
0.954955	179.625
0.993243	182.043