File: data/nitrogen-adsorption-isotherms/c5sc03494a-si_page_29_[(Cp2Co)1.8(TEA)1.2][In3(BTC)4]_des.txt
# Relative Pressure (p/p0)    Quantity Adsorbed
0.95045	 179.536
0.882883	177.167
0.831081	175.391
0.783784	173.01
0.731982	170.631
0.682432	169.456
0.630631	168.283
0.578829	167.109
0.533784	165.931
0.484234	164.756
0.432432	164.185
0.382883	163.613
0.331081	162.439
0.283784	161.865
0.22973	161.295
0.18018	159.518
0.132883	159.546
0.0855856	157.768