File: data/nitrogen-adsorption-isotherms/c5sc03494a-si_page_29_[TEA]3[In3(BTC)4]_ads.txt
# Relative Pressure (p/p0)    Quantity Adsorbed
-0.000861227	 101.213
0.000159064	123.62
0.000115762	117.882
-0.000398443	112.624
-0.000304172	107.008
-0.000415583	95.3426
0.000225031	89.3735
-0.000415583	83.2449
0.000225031	77.0698
-1.45028e-05	69.1875
3.00616e-05	54.6792
4.31688e-05	36.6752
4.31688e-05	8.53043
0.00188691	130.484
0.00104133	62.8416
0.000908243	45.8644
0.000624254	27.2004
0.00773971	135.43
0.0213197	137.899
0.0324284	139.262
0.0856574	140.514
0.0984432	140.632
0.147714	141.002
0.156228	141.711
0.198193	141.498
0.207032	142.278
0.247713	142.363
0.257167	142.726
0.299516	142.625
0.30797	143.294
0.34845	142.99
0.356768	143.741
0.397584	143.748
0.406235	144.307
0.448098	144.452
0.45637	144.994
0.496517	145.007
0.505168	145.56
0.547321	145.606
0.555971	146.187
0.596614	146.307
0.606106	146.784
0.647403	146.729
0.656241	147.381
0.697057	147.76
0.705708	148.246
0.73512	148.92
0.748982	148.429
0.797799	149.368
0.805978	149.857
0.846794	150.187
0.855444	150.841
0.896388	151.187
0.904911	151.825
0.946356	151.845
0.954377	151.557