File: data/nitrogen-adsorption-isotherms/c5sc03494a-si_page_29_[Cp2Co]3[In3(BTC)4]_ads.txt
# Relative Pressure (p/p0)    Quantity Adsorbed
0.993243	 437.731
0.954955	430.523
0.90991	429.298
0.851351	427.467
0.808559	425.046
0.759009	423.819
0.704955	422.589
0.65991	421.364
0.608108	418.938
0.560811	418.311
0.511261	416.485
0.463964	414.66
0.414414	413.433
0.367117	411.608
0.313063	410.378
0.263514	406.755
0.213964	397.145
0.162162	390.527
0.121622	389.904
0.105856	389.895
0.0923423	389.886
0.0765766	389.877
0.0472973	388.662
0.0292793	388.651
0.0202703	388.646
0.0202703	384.454
0.018018	375.471
0.018018	366.489
0.018018	356.309
0.0202703	347.328
0.018018	337.147
0.018018	328.165
0.0202703	318.586
0.018018	310.201
0.018018	300.62
0.0202703	291.64
0.018018	282.058