File: data/nitrogen-adsorption-isotherms/c5sc03494a-si_page_29_[Cp2Co]3[In3(BTC)4]_des.txt
# Relative Pressure (p/p0)    Quantity Adsorbed
0.952055	 160.976
0.883562	160.366
0.8379	158.537
0.783105	157.317
0.73516	156.098
0.687215	155.488
0.63242	154.878
0.579909	153.659
0.52968	152.439
0.484018	151.22
0.431507	150.61
0.383562	149.39
0.33105	147.561
0.283105	146.341
0.228311	145.122
0.182648	140.854
0.134703	136.585
0.086758	132.927