File: data/nitrogen-adsorption-isotherms/c5sc03494a-si_page_29_[TEA]3[In3(BTC)4]_des.txt
# Relative Pressure (p/p0)    Quantity Adsorbed
0.954853	 154.666
0.882619	154.019
0.8307	152.779
0.731377	152.114
0.731377	152.114
0.783296	152.75
0.683973	151.482
0.632054	150.846
0.580135	150.21
0.528217	148.971
0.480813	150.15
0.431151	148.912
0.38149	150.09
0.331828	148.248
0.284424	148.219
0.232506	148.188
0.180587	148.156
0.128668	148.125
0.0857788	148.099