File: data/nitrogen-adsorption-isotherms/c5ta05481h_page_3_ZJNU-43a_ads.txt
# Relative Pressure (p/p0)    Quantity Adsorbed
0.919203	 579.318
0.881159	580.828
0.852174	580.773
0.825	580.722
0.786957	577.485
0.721739	577.361
0.685507	577.292
0.658333	580.405
0.62029	578.751
0.591304	578.696
0.558696	578.634
0.527899	578.575
0.493478	576.928
0.459058	576.862
0.431884	576.811
0.395652	575.16
0.357609	575.087
0.321377	575.019
0.306884	573.409
0.299638	573.395
0.277899	573.354
0.256159	573.312
0.203623	568.466
0.203623	568.466
0.163768	563.643
0.138406	560.431
0.123913	558.821
0.111232	555.632
0.0822464	552.413
0.0695652	549.224
0.0514493	538.114
0.0188406	509.571
0.00978261	492.148
0.00253623	446.249
0.00253623	446.249
0.00253623	419.35