File: data/nitrogen-adsorption-isotherms/c5ta09507g-si_page_6_MoCx@C-1_des.txt
# Relative Pressure (p/p0)    Quantity Adsorbed
0.990264	 52.4926
0.968748	51.3805
0.931425	49.4191
0.896271	47.9203
0.896271	47.9203
0.872094	46.9984
0.872094	46.9984
0.847916	46.0765
0.823748	45.0389
0.823748	45.0389
0.797394	43.7701
0.753504	41.2312
0.700841	38.1149
0.64816	35.2302
0.599888	32.3447
0.547152	30.1544
0.50102	28.0788
0.457571	19.9842
0.398148	18.7209
0.329896	17.5749
0.277013	17.2365
0.25279	16.8933
0.202111	16.5545
0.140437	15.8704