File: data/nitrogen-adsorption-isotherms/c5ta10401g_page_6_Zr-L6_des.txt
# Relative Pressure (p/p0)    Quantity Adsorbed
1.0017	 690.253
0.975694	690.253
0.956914	690.574
0.930623	686.562
0.907639	686.562
0.881372	686.562
0.830443	680.546
0.830443	680.546
0.807447	678.54
0.807447	678.54
0.856722	682.551
0.782822	678.54
0.754889	674.529
0.72861	672.523
0.707255	670.517
0.680988	670.517
0.65798	666.506
0.630071	666.506
0.605422	662.495
0.579154	662.495
0.554505	658.484
0.554505	658.484
0.528238	658.484
0.478939	650.461
0.503588	654.473
0.503588	654.473
0.455967	652.467
0.429688	650.461
0.400113	646.45
0.380401	644.444
0.352491	644.444
0.324559	640.433
0.303216	640.433
0.278567	636.422
0.255583	636.422
0.227662	634.416
0.204643	628.4
0.180005	626.394
0.15369	618.371
0.130694	616.366
0.10275	610.349
0.0797182	602.327
0.0500844	588.287
0.0237459	576.254