File: data/nitrogen-adsorption-isotherms/c5ta05481h_page_3_ZJNU-43a_des.txt
# Relative Pressure (p/p0)    Quantity Adsorbed
0.946377	 580.952
0.893841	579.27
0.848551	577.602
0.808696	579.108
0.792391	577.495
0.754348	579.005
0.714493	577.347
0.678261	578.861
0.636594	580.364
0.603986	580.302
0.569565	578.654
0.527899	578.575
0.478986	576.9
0.444565	576.835
0.402899	575.173
0.364855	575.101
0.325	571.861
0.27971	571.775
0.24529	565.38
0.207246	565.308
0.169203	565.236
0.123913	561.985
0.0876812	550.841
0.0532609	539.699
0.0224638	517.489