File: data/nitrogen-adsorption-isotherms/c5ta10401g_page_6_Zr-L8_des.txt
# Relative Pressure (p/p0)    Quantity Adsorbed
1.00243	 891.135
0.982714	889.13
0.956434	887.124
0.931785	883.113
0.908765	877.096
0.884128	875.09
0.856195	871.079
0.833164	863.057
0.806896	863.057
0.782259	861.051
0.759251	857.04
0.734613	855.034
0.70831	849.017
0.683661	845.006
0.659024	843
0.632721	836.984
0.608071	832.972
0.58015	830.967
0.557131	824.95
0.535777	822.944
0.507832	816.927
0.481541	812.916
0.458533	808.905
0.4306	804.894
0.405951	800.882
0.384561	792.86
0.359924	790.854
0.327054	784.838
0.308971	780.826
0.282668	774.809
0.256353	766.787
0.228409	760.77
0.205389	754.753
0.179063	744.725
0.156055	740.714
0.133	728.68
0.106661	716.647
0.0786574	700.602
0.0588738	686.562
0.055543	678.54
0.027302	622.383