File: data/nitrogen-adsorption-isotherms/c5ta10401g_page_6_Zr-L7_des.txt
# Relative Pressure (p/p0)    Quantity Adsorbed
1.00038	 822.944
0.980657	818.933
0.957649	814.922
0.932988	808.905
0.905079	808.905
0.882071	804.894
0.859087	804.894
0.831143	798.877
0.804875	798.877
0.781867	794.866
0.753947	792.86
0.732592	790.854
0.706325	790.854
0.683329	788.849
0.657026	782.832
0.630759	782.832
0.606109	778.821
0.578188	776.815
0.558464	772.804
0.530531	768.793
0.504252	766.787
0.481256	764.781
0.45167	758.765
0.430316	756.759
0.405666	752.748
0.381005	746.731
0.356379	746.731
0.330065	738.708
0.303797	738.708
0.279136	732.692
0.256128	728.68
0.231491	726.675
0.203534	718.652
0.178873	712.635
0.15257	706.619
0.131168	696.59
0.103212	688.568
0.080145	674.529
0.0571017	664.501
0.0537946	660.489
0.0255773	608.343