File: data/nitrogen-adsorption-isotherms/c5ta05481h_page_3_ZJNU-45a_ads.txt
# Relative Pressure (p/p0)    Quantity Adsorbed
0.937319	 571.441
0.90471	566.632
0.87029	568.149
0.837681	568.088
0.805072	566.443
0.768841	567.957
0.741667	566.323
0.709058	567.843
0.622101	569.26
0.584058	567.606
0.558696	567.558
0.522464	564.324
0.491667	569.013
0.462681	567.375
0.424638	565.721
0.392029	565.659
0.330435	565.542
0.308696	562.336
0.301449	562.323
0.263406	560.668
0.230797	560.606
0.198188	560.544
0.138406	554.102
0.113043	549.307
0.0985507	546.114
0.065942	536.559
0.0333333	519.092
0.017029	511.15
0.00615942	488.977
0.00253623	474.73
0.00253623	463.654
0.00253623	432.008