File: data/nitrogen-adsorption-isotherms/c5ta05481h_page_3_ZJNU-45a_des.txt
# Relative Pressure (p/p0)    Quantity Adsorbed
0.948188	 568.297
0.888406	568.184
0.848551	569.69
0.812319	568.039
0.774275	571.132
0.73442	567.891
0.698188	567.823
0.638406	567.709
0.593116	567.623
0.542391	569.109
0.522464	567.489
0.480797	568.992
0.440942	567.334
0.402899	568.844
0.363043	565.604
0.323188	567.111
0.285145	562.292
0.24529	562.216
0.203623	560.554
0.163768	554.15
0.129348	550.92
0.0876812	544.512
0.0478261	531.778
0.00615942	498.471