File: data/nitrogen-adsorption-isotherms/c5ta10401g_page_6_Zr-L5_des.txt
# Relative Pressure (p/p0)    Quantity Adsorbed
1.00239	 407.22
0.981113	407.22
0.952727	404.332
0.929052	398.556
0.907742	392.78
0.879373	392.78
0.858096	392.78
0.829693	387.004
0.803689	387.004
0.777667	384.116
0.751662	384.116
0.730386	384.116
0.704381	384.116
0.680723	381.227
0.654701	378.339
0.628679	375.451
0.602675	375.451
0.579034	375.451
0.555359	369.675
0.534083	369.675
0.505697	366.787
0.477294	361.011
0.451289	361.011
0.427648	361.011
0.401627	358.123
0.375588	352.347
0.349583	352.347
0.328289	349.458
0.304649	349.458
0.280974	343.682
0.252605	343.682
0.228947	340.794
0.205273	335.018
0.179268	335.018
0.150882	332.13
0.131935	326.354
0.10355	323.466
0.0751295	314.801
0.0514888	314.801
0.0277799	303.249
0.00878204	288.809
0.00847479	236.823
0.00815048	181.949
0.00539383	115.523