File: data/nitrogen-adsorption-isotherms/c5ta10401g_page_6_Zr-L8_ads.txt
# Relative Pressure (p/p0)    Quantity Adsorbed
-0.00200382	 198.399
0.0025153	303.811
0.00261762	268.583
0.000788343	244.395
0.00345442	222.758
0.00180202	169.231
0.000380679	141.304
0.000500467	114.335
0.000209873	86.817
-9.23166e-05	61.2727
-0.00023632	36.9074
0.0106236	536.602
0.0135374	563.581
0.00975649	426.445
0.00911285	390.646
0.00896951	366.393
0.00882539	342.008
0.0122721	464.639
0.0268268	608.375
0.0280304	576.973
0.0358982	643.426
0.0496489	665.142
0.0667077	685.835
0.0866066	701.58
0.104631	709.269
0.127596	721.893
0.149523	725.642
0.168317	738.774
0.185223	740.989
0.205993	747.642
0.229024	755.422
0.25144	761.371
0.270521	766.031
0.28672	769.118
0.307152	772.09
0.329198	776.917
0.35463	781.463
0.377311	786.777
0.396345	791.019
0.412072	793.331
0.431849	795.103
0.454553	801.592
0.477141	804.586
0.49593	809.616
0.511279	810.787
0.531761	813.315
0.554781	818.269
0.577129	822.062
0.595829	825.537
0.611496	826.846
0.632536	829.477
0.656243	833.442
0.680095	835.869
0.702454	841.701
0.719715	846.597
0.738476	848.309
0.758304	850.606
0.779822	852.885
0.800832	857.402
0.820484	859.658
0.836787	860.021
0.857802	863.166
0.881125	865.146
0.902569	877.272
0.922586	880.042
0.939657	882.245
0.959266	884.086
0.981061	887.492
1.00023	893.67