File: data/nitrogen-adsorption-isotherms/c5ta04989j_page_2_Li-UPC-5_ads.txt
# Relative Pressure (p/p0)    Quantity Adsorbed
-0.0101097	 79.7866
-0.0101097	59.8251
-0.00581088	95.8639
-0.00294504	98.4723
0.00159255	20.3831
0.00511515	103.648
0.0187751	105.442
0.0325596	107.703
0.0480133	108.844
0.0597851	110.14
0.0744328	111.149
0.0888516	112.992
0.106244	112.366
0.129385	112.884
0.145995	113.241
0.161572	114.049
0.175718	113.512
0.192704	113.021
0.208466	113.321
0.224054	113.326
0.239219	113.542
0.255735	114.308
0.271728	115.017
0.285277	114.502
0.301599	114.68
0.317608	115.803
0.334365	115.009
0.349133	115.5
0.3673	114.728
0.382818	114.692
0.398273	114.927
0.414036	114.749
0.430275	115.278
0.446788	115.257
0.476663	115.828
0.494893	115.192
0.511083	115.028
0.526699	115.493
0.542558	115.244
0.558522	115.956
0.570511	116.557
0.60735	115.507
0.621809	115.098
0.638145	114.927
0.653081	115.115
0.669693	114.919
0.685455	115.017
0.699392	115.131
0.708358	114.153
0.719909	114.676
0.736142	116.097
0.74122	114.752
0.755788	114.96
0.771502	115.397
0.78569	115.273
0.802358	114.788
0.818421	114.812
0.833882	114.679
0.851077	114.679
0.866033	115.263
0.882601	114.869
0.89779	115.038
0.914126	114.839
0.929888	115.088
0.94565	115.261
0.962527	116.02
0.977174	116.522
0.993318	117.065