File: data/nitrogen-adsorption-isotherms/c5ta10401g_page_6_Zr-L5_ads.txt
# Relative Pressure (p/p0)    Quantity Adsorbed
0.0260313	 300.983
0.0503943	313.652
0.0767365	318.738
0.101253	321.935
0.126675	324.878
0.152105	329.11
0.177516	330.151
0.201118	332.166
0.22654	335.042
0.25194	334.266
0.277369	338.286
0.302774	338.481
0.327293	342.052
0.352699	342.31
0.377909	344.698
0.402631	347.298
0.427895	349.084
0.45255	350.069
0.477969	352.563
0.502483	355.295
0.527206	357.942
0.553322	360.283
0.577908	361.288
0.603244	363.524
0.627756	366.062
0.653166	366.952
0.678283	369.328
0.703092	370.971
0.728753	372.456
0.752871	373.773
0.77752	375.717
0.802046	380.459
0.8276	382.1
0.852874	383.599
0.877383	385.581
0.903745	394.058
0.927489	396.481
0.952771	399.205
0.978199	403.197
0.998171	405.121