File: data/nitrogen-adsorption-isotherms/c5ta09507g-si_page_6_MoCx@C-1_ads.txt
# Relative Pressure (p/p0)    Quantity Adsorbed
0.00681035	 11.9605
0.0207541	12.372
0.0302957	13.3488
0.0453884	13.6637
0.0644488	14.3145
0.0797492	14.5082
0.0982696	14.9412
0.116094	15.256
0.131225	15.705
0.15123	15.942
0.165656	15.9817
0.182378	16.1905
0.218208	16.6118
0.235422	16.9343
0.25263	17.3428
0.265968	17.1349
0.311518	17.5319
0.344868	17.9252
0.359631	18.0402
0.377937	18.2869
0.388114	18.4105
0.412375	18.8197
0.429592	19.1086
0.446511	18.9973
0.464058	19.2861
0.481274	19.5824
0.498508	19.6583
0.515722	19.9919
0.532933	20.3518
0.549557	20.4384
0.567372	20.8771
0.58458	21.2819
0.600592	21.3944
0.619004	21.9831
0.636857	22.4866
0.65205	22.627
0.67061	23.4231
0.688883	24.0715
0.703548	24.3329
0.722173	25.403
0.739611	26.1984
0.752845	26.6098
0.767426	27.8943
0.782239	28.8563
0.79514	29.7732
0.806842	30.3286
0.815361	31.7
0.826635	32.2739
0.835139	33.7364
0.84839	34.6256
0.856098	36.2429
0.868262	38.6311
0.862281	37.3263
0.8802	39.5419
0.885728	40.9287
0.894572	42.8425
0.890142	41.7429
0.904847	44.0535
0.925327	46.0218
0.943571	48.1873
0.954973	48.6301
0.965091	49.9772
0.981491	51.4636