File: data/nitrogen-adsorption-isotherms/c5ta04989j_page_2_UPC-5_ads.txt
# Relative Pressure (p/p0)    Quantity Adsorbed
0.00552223	 98.5162
0.00493604	81.391
0.00493604	61.484
0.00493604	58.8517
0.00493604	41.3576
0.00493604	38.6705
0.00493604	21.341
0.00493604	18.5989
0.0285793	105.306
0.023564	102.751
0.044628	106.608
0.0601036	107.171
0.0758657	107.839
0.0916279	108.108
0.10739	108.577
0.123391	108.948
0.139273	109.195
0.154676	109.255
0.170439	109.544
0.186201	109.753
0.201963	109.933
0.217725	110.082
0.233487	110.242
0.249249	110.421
0.265609	110.626
0.280774	110.531
0.296536	110.661
0.312298	110.741
0.32806	110.751
0.343822	110.89
0.359584	110.95
0.375347	110.96
0.391109	110.95
0.406871	111.08
0.422633	111.09
0.438395	111.149
0.454157	111.169
0.46992	111.169
0.485682	111.169
0.501444	111.249
0.517206	111.279
0.532968	111.289
0.54873	111.289
0.564492	111.319
0.580255	111.289
0.596017	111.403
0.613043	111.821
0.626944	111.407
0.643303	111.279
0.658946	111.38
0.674717	111.49
0.691067	111.306
0.706829	111.38
0.722592	111.37
0.737876	111.169
0.753638	111.259
0.768923	111.334
0.784924	111.334
0.800925	111.416
0.816806	111.407
0.833046	111.443
0.848808	111.507
0.863973	111.389
0.879258	111.535
0.895139	111.553
0.91114	111.672
0.926903	111.736
0.942665	111.9
0.959103	112.699
0.974308	112.276
0.990071	112.934
0.991503	116.209
0.999623	113.802