File: data/nitrogen-adsorption-isotherms/c5ta04989j_page_2_Li-UPC-5_des.txt
# Relative Pressure (p/p0)    Quantity Adsorbed
0.0936976	 116.8
0.10532	116.892
0.120286	117.278
0.136048	117.564
0.160886	117.933
0.175761	117.998
0.191932	117.958
0.209128	118.161
0.226323	118.226
0.251956	118.671
0.264295	118.673
0.300118	118.81
0.319463	118.513
0.335225	117.977
0.364042	118.563
0.379645	118.56
0.389676	118.299
0.414036	118.408
0.429798	117.77
0.44556	118.052
0.462755	118.325
0.489344	118.732
0.507335	118.642
0.52609	118.095
0.542794	118.853
0.557328	118.474
0.577389	118.772
0.594226	118.5
0.606047	119.066
0.633989	118.657
0.644736	118.66
0.668141	118.679
0.680559	118.69
0.706352	118.532
0.718532	118.719
0.749021	118.342
0.763828	117.757
0.774654	118.097
0.798059	118.187
0.809522	118.138
0.832449	118.023
0.847853	117.382
0.876665	118.273
0.890626	117.077
0.906961	117.979
0.922723	117.695
0.940028	117.376
0.954247	118.163
0.974499	117.291
0.988842	118.046
0.990548	116.296
0.999146	117.177