File: data/nitrogen-adsorption-isotherms/c5ta10401g_page_6_Zr-L6_ads.txt
# Relative Pressure (p/p0)    Quantity Adsorbed
0.00162726	 321.521
0.00122237	283.717
0.00151822	251.899
0.000864837	223.223
0.00108173	194.129
0.00128114	162.076
0.00018011	132.954
0.000176662	106.784
-0.000427976	81.2379
0.000178075	49.4539
-0.000715767	17.192
0.00429402	480.247
0.0040007	446.775
0.00385596	422.285
0.00371393	398.254
0.00356919	373.764
0.00389591	352.286
0.00713518	516.577
0.0112678	542.699
0.0216906	566.937
0.0445846	584.379
0.0614782	592.468
0.080212	599.762
0.102935	606.477
0.128376	612.747
0.153808	617.247
0.177422	621.228
0.198819	625.516
0.21806	627.412
0.236341	628.84
0.255045	629.332
0.279107	632.411
0.304537	636.723
0.328149	640.438
0.353567	642.614
0.378985	644.912
0.400369	646.882
0.419608	648.376
0.438292	649.814
0.456862	649.9
0.47884	653.304
0.500606	651.71
0.518975	655.281
0.537381	656.643
0.556891	657.068
0.578677	658.871
0.600066	661.686
0.618825	662.942
0.637232	664.547
0.656235	662.831
0.678522	665.762
0.699906	667.64
0.718669	669.753
0.737421	669.816
0.756112	668.238
0.780038	671.77
0.805591	673.282
0.829195	675.606
0.850579	677.549
0.869822	679.827
0.887651	679.883
0.906403	678.449
0.929275	681.308
0.951934	682.852
0.970631	685.816
0.987696	687.458
1.00349	690.609