File: data/nitrogen-adsorption-isotherms/c5ta10401g_page_6_Zr-L7_ads.txt
# Relative Pressure (p/p0)    Quantity Adsorbed
0.00542159	 241.989
0.00747529	347.502
0.00683285	311.904
0.00668853	287.487
0.00748126	268.098
0.0113241	442.402
0.0167112	566.244
0.0134072	479.56
0.0179538	530.47
0.0132475	373.821
0.0260374	593.314
0.0371469	641.594
0.05471	651.551
0.0759207	666.845
0.0980936	680.583
0.116125	689.129
0.134062	692.089
0.155195	698.493
0.18012	709.422
0.205169	710.578
0.228714	723.329
0.250193	720.925
0.269385	727.35
0.287388	728.691
0.306914	731.841
0.328568	736.809
0.354142	739.932
0.379575	744.755
0.405227	745.602
0.430279	750.461
0.454584	751.749
0.476419	755.447
0.495597	759.47
0.510975	759.419
0.531931	763.034
0.555719	765.801
0.579559	767.238
0.604735	769.437
0.630405	773.381
0.655582	775.757
0.68103	783.099
0.704631	784.918
0.726433	789.406
0.746203	791.155
0.762344	793.064
0.782735	797.555
0.804516	798.5
0.825897	799.87
0.84466	801.981
0.863421	803.614
0.882576	803.651
0.906183	806.619
0.929929	809.289
0.951183	812.901
0.971352	814.05
0.988464	817.406
1.00629	819