File: data/nitrogen-adsorption-isotherms/c5ta05481h_page_3_ZJNU-44a_des.txt
# Relative Pressure (p/p0)    Quantity Adsorbed
0.948188	 593.614
0.890217	593.504
0.850362	593.428
0.810507	593.352
0.810507	593.352
0.776087	593.287
0.730797	593.201
0.652899	596.218
0.652899	596.218
0.622101	596.159
0.694565	594.715
0.596739	592.946
0.553261	589.699
0.518841	591.216
0.480797	592.726
0.440942	587.904
0.402899	587.832
0.323188	587.68
0.27971	581.269
0.27971	581.269
0.243478	581.2
0.163768	576.302
0.163768	576.302
0.125725	574.647
0.0858696	568.242
0.0115942	517.468
0.0115942	517.468