File: data/nitrogen-adsorption-isotherms/c5ta04989j_page_2_UPC-5_des.txt
# Relative Pressure (p/p0)    Quantity Adsorbed
0.0977894	 109.09
0.100225	108.098
0.115988	108.925
0.132323	109.645
0.147512	109.937
0.16211	109.985
0.179156	109.853
0.194798	109.893
0.211552	110.286
0.226323	110.182
0.241607	110.466
0.257847	110.511
0.273609	110.611
0.289371	110.776
0.305133	110.731
0.320896	110.76
0.336658	110.87
0.367704	111.096
0.383705	111.133
0.399706	111.215
0.415707	111.306
0.431231	111.179
0.44759	111.334
0.462755	111.179
0.478039	111.343
0.494279	111.209
0.510041	111.446
0.526355	111.566
0.542117	111.566
0.557925	111.407
0.57309	112.436
0.589449	111.425
0.605606	111.515
0.620035	112.28
0.636139	111.279
0.651901	111.279
0.667663	111.279
0.683425	111.289
0.698948	111.407
0.714711	111.425
0.730473	111.407
0.746712	111.407
0.762355	111.416
0.778356	111.407
0.794357	111.416
0.809522	111.279
0.825284	111.299
0.840927	111.517
0.856478	111.616
0.87269	111.571
0.888572	111.535
0.904573	111.745
0.920335	111.754
0.936391	111.945
0.951979	112.065
0.982906	112.595