File: data/nitrogen-adsorption-isotherms/c5ta05481h_page_3_ZJNU-44a_ads.txt
# Relative Pressure (p/p0)    Quantity Adsorbed
0.917391	 593.555
0.882971	593.49
0.83587	591.818
0.806884	591.763
0.772464	593.28
0.743478	593.225
0.743478	593.225
0.709058	593.16
0.65471	593.057
0.627536	589.84
0.58587	591.344
0.535145	589.665
0.491667	591.165
0.459058	591.103
0.459058	591.103
0.428261	589.462
0.363043	589.338
0.363043	589.338
0.310507	584.492
0.299638	586.053
0.268841	585.995
0.257971	582.81
0.230797	582.758
0.192754	579.521
0.163768	574.719
0.136594	574.668
0.114855	571.462
0.105797	569.862
0.0297101	544.401
0.0297101	544.401
0.065942	560.293
0.00797101	525.373
0.0188406	533.305
0.0188406	533.305
0.00978261	511.136
0.00615942	503.218
0.00434783	479.48
0.00253623	455.742