File: data/nitrogen-adsorption-isotherms/c6ce00126b-si_page_5_2a_des.txt
# Relative Pressure (p/p0)    Quantity Adsorbed
0.986727	 7.75971
0.966931	5.4558
0.953585	4.58004
0.944716	3.86633
0.90434	2.73259
0.848023	2.21677
0.800707	1.83023
0.748809	1.7362
0.692477	1.28531
0.649609	1.19069
0.597705	1.12912
0.5413	1.00292
0.489409	0.876416
0.451078	0.6841
0.399166	0.655004
0.342761	0.528796
0.247966	0.470017