File: data/nitrogen-adsorption-isotherms/c6ce00126b_page_4_1a_ads.txt
# Relative Pressure (p/p0)    Quantity Adsorbed
0.995693	 14.0764
0.976314	10.2548
0.96124	7.38854
0.913867	5.15924
0.862188	4.20382
0.816968	3.24841
0.763135	2.92994
0.717916	2.92994
0.666236	2.61146
0.612403	1.97452
0.56503	1.33758
0.515504	1.33758
0.463824	1.33758
0.418605	1.33758
0.371232	1.33758
0.310939	1.01911
0.282946	1.01911
0.196813	2.29299
0.16882	1.65605
0.140827	1.65605
0.112834	1.65605
0.0848407	1.97452
0.0654608	1.97452
0.0310078	1.33758
0.0180879	1.65605