File: data/nitrogen-adsorption-isotherms/c6ce00126b-si_page_5_2a_ads.txt
# Relative Pressure (p/p0)    Quantity Adsorbed
0.0156857	 0.525935
0.0258963	0.548344
0.035586	0.563462
0.0460122	0.573685
0.0563975	0.576053
0.0725153	0.553634
0.0830071	0.56414
0.0926246	0.569121
0.0989358	0.625719
0.108034	0.548879
0.119097	0.593389
0.128872	0.574241
0.139283	0.620687
0.149753	0.581512
0.159611	0.621877
0.170145	0.581208
0.180039	0.635831
0.191813	0.591303
0.200992	0.609383
0.208832	0.620252
0.223696	0.599251
0.233909	0.608302
0.244126	0.601567
0.254356	0.538366
0.265058	0.59084
0.272915	0.607504
0.275109	0.48627
0.286841	0.622473
0.296687	0.614547
0.307782	0.561555
0.322593	0.635128
0.335904	0.638292
0.359077	0.604931
0.375059	0.657164
0.378521	0.600647
0.38906	0.659898
0.399201	0.677107
0.410009	0.648316
0.420327	0.615424
0.429855	0.643422
0.449377	0.558489
0.470401	0.67191
0.480339	0.703244
0.496913	0.742227
0.507271	0.762119
0.516398	0.847393
0.526191	0.859137
0.5366	0.885786
0.547211	0.847985
0.557877	0.90838
0.588617	0.837847
0.598401	0.897602
0.609056	0.802519
0.618832	0.832727
0.628553	0.826753
0.639683	0.892818
0.649594	0.86917
0.660617	0.844315
0.67034	0.846747
0.680549	0.877475
0.690749	0.946575
0.700686	0.944958
0.71159	0.929056
0.722254	0.914728
0.731107	0.936061
0.741818	0.983331
0.75194	0.942669
0.762399	0.937277
0.783372	1.00788
0.79288	1.0553
0.803601	1.06068
0.835558	1.23954
0.845762	1.29291
0.856365	1.33672
0.864718	1.45124
0.867302	1.31683
0.874803	1.41051
0.875476	1.31162
0.884699	1.59214
0.894893	1.68984
0.90544	1.80236
0.914125	1.89818
0.921763	1.96146
0.926821	2.18543
0.932361	2.32755
0.937901	2.47078
0.94344	2.61513
0.94898	2.75836
0.95452	2.90048
0.959107	3.14866
0.967689	3.28117
0.97063	3.52946
0.972606	3.69074
0.974426	3.85759
0.976244	4.02889
0.977448	4.18187
0.984294	4.70828
0.985166	4.96278
0.986835	5.20859
0.988774	5.43506
0.990713	5.66058
0.991469	5.83761
0.993149	6.03634
0.994822	6.26522
1.00118	6.69839