File: data/nitrogen-adsorption-isotherms/c6ce00126b_page_4_1a_des.txt
# Relative Pressure (p/p0)    Quantity Adsorbed
0.982773	 16.6242
0.96124	12.8025
0.946167	11.5287
0.890181	7.38854
0.836348	4.84076
0.795435	4.20382
0.741602	3.24841
0.692076	3.24841
0.633936	2.92994
0.593023	2.61146
0.53919	1.97452
0.502584	2.29299
0.442291	2.92994
0.386305	2.61146
0.341085	1.65605
0.289406	1.97452
0.19466	2.29299
0.14944	1.97452
0.11068	1.97452
0.0740741	2.61146
0.0374677	2.29299
0.0137812	2.29299