File: data/nitrogen-adsorption-isotherms/c6dt03852b-si_page_23_Ce-CAU-24_des.txt
# Relative Pressure (p/p0)    Quantity Adsorbed
0.97779	 325.359
0.960976	322.895
0.955376	322.916
0.955376	322.916
0.946042	322.95
0.931108	323.004
0.89936	320.594
0.871352	319.433
0.824676	318.34
0.850811	318.245
0.850811	318.245
0.798555	320.961
0.770547	319.8
0.744406	318.632
0.722005	318.714
0.695871	318.809
0.673476	320.153
0.645461	317.729
0.621194	317.818
0.595059	317.913
0.572658	317.994
0.550257	318.076
0.520376	315.659
0.496108	315.747
0.469973	315.842
0.449439	315.917
0.421445	317.281
0.399037	316.1
0.372902	316.195
0.348621	313.758
0.328087	313.833
0.301952	313.928
0.272084	314.037
0.247803	311.6
0.221669	311.695
0.197394	310.52
0.171239	306.828
0.146951	303.128
0.12453	299.422
0.100242	295.722