File: data/nitrogen-adsorption-isotherms/c6dt03852b-si_page_23_Zr-CAU-24_ads.txt
# Relative Pressure (p/p0)    Quantity Adsorbed
0.989806	 476.831
0.991706	483.137
0.991706	483.137
0.978496	456.67
0.963528	450.411
0.93924	446.712
0.87013	439.387
0.87013	439.387
0.851456	438.193
0.812254	438.335
0.784239	435.912
0.759965	434.737
0.731963	434.839
0.707696	434.927
0.681561	435.022
0.65916	435.104
0.60313	430.257
0.633005	431.411
0.582589	429.069
0.558322	429.157
0.509779	428.071
0.509779	428.071
0.530314	427.997
0.481778	428.173
0.459377	428.255
0.435109	428.343
0.410828	425.906
0.38656	425.994
0.356679	423.578
0.338004	422.383
0.31187	422.478
0.285722	420.048
0.263314	418.867
0.237173	417.699
0.207284	414.02
0.18487	411.576
0.134427	404.184
0.134427	404.184
0.156835	405.365
0.110125	397.959
0.08209	391.748
0.0596619	386.779
0.0465742	383.039
0.0372066	376.759
0.0128098	352.858
0.0128098	352.858
0.0107802	322.563
0.0107802	322.563
0.0108684	338.976
0.00491519	273.342
0.0050238	293.543
0.0050238	293.543
0.00296019	256.935
0.00296019	256.935
0.00629319	182.427
0.00629319	182.427
0.000835489	208.962
0.00470475	234.201
0.00433819	166.02
0.00418206	136.981
-0.00156074	110.486