File: data/nitrogen-adsorption-isotherms/c6dt03852b-si_page_23_Ce-CAU-24_ads.txt
# Relative Pressure (p/p0)    Quantity Adsorbed
0.992416	 337.427
0.974422	323.856
0.956485	320.891
0.925107	317.975
0.866857	316.672
0.866857	316.672
0.828775	316.81
0.813094	316.867
0.813094	316.867
0.783981	318.488
0.75038	318.611
0.723498	318.708
0.705578	318.774
0.676456	318.879
0.654047	317.446
0.61186	317.852
0.61186	317.852
0.587585	316.677
0.563318	316.766
0.53531	315.605
0.509182	316.962
0.481181	317.064
0.432645	317.241
0.410244	317.322
0.380356	313.643
0.380356	313.643
0.339294	315.055
0.339294	315.055
0.315026	315.143
0.287025	315.245
0.232869	311.654
0.206728	310.486
0.206728	310.486
0.160018	303.081
0.160018	303.081
0.188054	309.292
0.113309	295.675
0.113309	295.675
0.137597	299.374
0.137597	299.374
0.0871608	293.245
0.0422909	280.781
0.0422909	280.781
0.0572521	285.778
0.0291829	273.253
0.0235691	270.748
0.0160546	261.937
0.00847219	240.5
0.00277691	222.844
0.00263436	196.33
0.000618267	168.559
0.000462139	139.519
0.00200984	80.1703
-2.66097e-05	48.6121
-2.66097e-05	48.6121
0.00355755	20.8213