File: data/nitrogen-adsorption-isotherms/c6dt03852b-si_page_23_Zr-CAU-24_des.txt
# Relative Pressure (p/p0)    Quantity Adsorbed
0.982284	 466.757
0.974776	459.209
0.961669	451.681
0.954202	451.708
0.942994	450.486
0.929907	446.746
0.900032	445.592
0.873877	441.899
0.853336	440.711
0.829048	437.011
0.797306	435.864
0.767438	435.973
0.722623	433.611
0.722623	433.611
0.746897	434.785
0.698362	434.961
0.664753	433.821
0.625545	432.701
0.625545	432.701
0.644219	433.896
0.597544	432.803
0.571396	430.373
0.547128	430.461
0.515393	430.576
0.502326	430.624
0.472444	428.207
0.422042	428.39
0.422042	428.39
0.395894	425.96
0.373473	422.254
0.347345	423.612
0.32307	422.437
0.296922	420.007
0.265181	418.86
0.224106	417.747
0.224106	417.747
0.203558	415.296
0.173669	411.617
0.149374	406.655
0.125086	402.955
0.0989247	398