File: data/nitrogen-adsorption-isotherms/c6ta00429f_page_2_NNU-28_des.txt
# Relative Pressure (p/p0)    Quantity Adsorbed
0.975321	 456.296
0.94212	452.621
0.90062	450.658
0.848052	448.638
0.809318	448.443
0.751217	448.149
0.712483	447.954
0.657149	447.674
0.604582	445.655
0.543714	447.101
0.507747	445.166
0.457946	446.668
0.410912	444.677
0.361111	446.179
0.305777	447.653
0.267043	443.95
0.206175	441.889
0.150841	443.363
0.018039	367.286
0.018039	367.286