File: data/nitrogen-adsorption-isotherms/c6ta00429f_page_2_NNU-28_ads.txt
# Relative Pressure (p/p0)    Quantity Adsorbed
0.966777	 449.58
0.92691	449.58
0.890365	443.277
0.850498	447.479
0.79402	443.277
0.744186	443.277
0.69103	443.277
0.641196	441.176
0.58804	441.176
0.548173	443.277
0.491694	441.176
0.44186	443.277
0.395349	441.176
0.345515	443.277
0.295681	443.277
0.245847	443.277
0.202658	441.176
0.172757	443.277
0.149502	443.277
0.119601	439.076
0.0930233	439.076
0.0730897	430.672
0.0531561	424.37
0.0431894	418.067
0.0299003	405.462
0.0199336	388.655
0.00664452	350.84
0.00332226	338.235
0.0	323.529
0.0	308.824
0.0	298.319
0.0	281.513
0.0	268.908
-0.00332226	254.202
-0.00332226	239.496
-0.00332226	222.689
-0.00332226	203.782
-0.00332226	191.176
-0.00332226	170.168
-0.00332226	151.261
-0.00332226	134.454
-0.00332226	121.849
-0.00332226	109.244
-0.00332226	92.437
-0.00332226	75.6303
-0.00332226	58.8235
-0.00332226	42.0168
-0.00332226	29.4118
-0.00332226	16.8067
-0.00332226	2.10084