File: data/nitrogen-adsorption-isotherms/cg100357q_page_5_1a_ads.txt
# Relative Pressure (p/p0)    Quantity Adsorbed
0.00386613	 22.5564
0.00453025	43.609
0.00206352	65.4135
0.00265648	84.2105
0.00647518	105.263
0.00718674	127.82
0.00756623	139.85
0.00770855	144.361
0.00785086	148.872
0.0208249	160.15
0.0272764	164.662
0.0399421	166.165
0.0590119	170.677
0.0875216	174.436
0.112829	176.692
0.134983	178.947
0.163469	181.955
0.191883	182.707
0.217168	184.211
0.261332	184.211
0.286592	184.962
0.321316	185.714
0.371884	188.722
0.425535	189.474
0.498162	191.729
0.577074	193.233
0.659116	193.985
0.741183	195.489
0.823202	195.489
0.905244	196.241
0.990441	196.992
1.00325	203.008