File: data/nitrogen-adsorption-isotherms/cg100357q_page_5_1a_des.txt
# Relative Pressure (p/p0)    Quantity Adsorbed
0.981001	 197.744
0.898935	196.241
0.794834	196.241
0.693864	195.489
0.596048	194.737
0.498257	194.737
0.403525	191.729
0.30246	187.97
0.210882	184.962
0.135054	181.203
0.103461	179.699
0.0208724	161.654
0.00123337	139.098
0.0026802	84.9624
-0.00559759	22.5564