File: data/nitrogen-adsorption-isotherms/cg400449c-si_page_9_NJU-Bai10_ads.txt
# Relative Pressure (p/p0)    Quantity Adsorbed
0.0025222	 19.0098
0.00244829	40.4143
-0.000369553	56.4602
0.0023097	80.5477
0.00225427	96.601
0.0021896	115.33
0.00203254	160.814
0.00195863	182.219
0.00188472	203.623
0.00182929	219.677
0.00175537	241.081
-0.0010717	259.803
-0.00115485	283.883
0.00430529	302.627
0.00146897	324.024
0.00125648	385.562
0.00120105	401.615
0.00365857	489.916
0.00210645	139.41
0.0014043	342.753
0.00131191	369.508
0.00112714	423.019
0.00105322	444.424
0.000988553	463.153
0.00358466	511.32
0.00355694	519.347
0.00346456	546.103
0.00338141	570.183
0.00332597	586.236
0.00325206	607.64
0.00595904	623.701
0.00865677	642.438
0.0278827	674.596
0.0444479	677.316
0.0913534	693.495
0.105156	696.207
0.124493	696.259
0.163148	701.714
0.182476	704.441
0.201803	707.168
0.248755	709.97
0.304012	707.442
0.353717	712.926
0.400678	713.052
0.450392	715.86
0.500125	713.318
0.552601	716.134
0.602334	713.591
0.649285	716.392
0.701771	716.533
0.751485	719.341
0.801208	719.474
0.820545	719.526
0.856457	719.622
0.873031	719.667
0.897893	719.733
0.928279	719.814
0.953141	719.881
0.994558	725.343