File: data/nitrogen-adsorption-isotherms/cg400449c-si_page_9_NJU-Bai10_des.txt
# Relative Pressure (p/p0)    Quantity Adsorbed
0.972496	 714.582
0.950378	719.874
0.950378	719.874
0.922764	717.124
0.914467	719.778
0.889605	719.711
0.85095	714.256
0.837129	716.895
0.809505	716.821
0.759782	716.688
0.72387	716.592
0.679672	716.474
0.627186	716.333
0.571938	716.185
0.522215	716.052
0.475254	715.927
0.425549	710.443
0.375826	710.31
0.326112	707.501
0.273626	707.361
0.226693	699.208
0.152117	696.333
0.027892	671.92
0.000517374	599.606
0.00119181	404.291
-0.000997792	238.398
0.0025222	19.0098