File: data/nitrogen-adsorption-isotherms/cg5008236-si_page_10_2_ads.txt
# Relative Pressure (p/p0)    Quantity Adsorbed
0.00540166	 2.76562
0.00952701	4.50387
0.0201715	6.25691
0.017485	5.40588
0.0271729	6.81428
0.0344965	6.90924
0.0423968	7.09916
0.0504878	7.23515
0.0574559	7.26068
0.0652326	7.47722
0.0728446	7.65826
0.0804565	7.818
0.0886791	7.9245
0.0950317	7.95379
0.103062	8.34032
0.105599	8.78356
0.112934	8.47508
0.119463	8.37458
0.127512	8.53152
0.135561	8.41774
0.142143	8.43073
0.150348	8.73386
0.158439	9.09595
0.165407	9.0318
0.173184	9.35154
0.181084	9.46691
0.188243	9.26051
0.196308	9.67191
0.203632	9.81479
0.200172	9.21309
0.211244	9.58583
0.218856	9.80414
0.226468	9.7509
0.234368	9.70608
0.241527	9.58126
0.249303	9.73492
0.257526	9.80571
0.263879	9.89034
0.272139	10.0171
0.280362	10.1503
0.286714	10.1466
0.294975	10.0331
0.310291	10.0097
0.314178	9.95989
0.320579	10.3047
0.328729	10.3618
0.335157	10.365
0.343415	10.4165
0.351673	10.3533
0.3581	10.2707
0.366251	10.2727
0.374151	10.2235
0.38131	10.1447
0.389086	10.2674
0.396698	10.1822
0.40431	10.3047
0.412568	10.0058
0.419055	10.2674
0.427739	10.1754
0.434321	10.1718
0.44237	10.3739
0.450461	10.5828
0.457283	10.4783
0.465206	10.8105
0.472818	10.9543
0.48043	11.1566
0.488207	11.146
0.495654	11.3643
0.503689	11.3998
0.510232	11.4662
0.51849	11.6412
0.52675	11.6255
0.533103	11.6352
0.541325	11.6785
0.549926	11.6731
0.556549	11.7051
0.563997	11.6034
0.571773	11.7477
0.579822	11.6454
0.586518	11.6731
0.594609	11.7903
0.602913	12.4932
0.611063	11.8586
0.617491	11.8918
0.626398	12.6176
0.632823	12.6916
0.640973	12.8446
0.649231	12.8875
0.65576	12.8847
0.663809	12.9617
0.671421	12.9617
0.679033	12.9724
0.686809	12.9032
0.693777	12.9437
0.70218	13.0613
0.708834	13.1023
0.717092	13.1854
0.724704	13.2333
0.732962	13.3132
0.739928	13.6965
0.748019	13.4889
0.754841	13.6002
0.762764	13.654
0.770376	13.6753
0.777988	13.8084
0.785765	13.7873
0.792733	13.7908
0.800708	13.896
0.809084	14.0124
0.816048	14.3408
0.824308	14.3894
0.831272	14.7988
0.838883	14.7615
0.846495	14.9532
0.854419	15.1172
0.861522	15.2879
0.869167	15.5389
0.876943	15.6827
0.884555	15.8318
0.892167	16.0128
0.900216	16.0859
0.906745	16.2301
0.915003	16.54
0.923264	16.8495
0.930227	17.2588
0.937839	17.524
0.945451	17.786
0.953063	18.2359
0.960675	18.8829
0.967638	19.2143
0.974433	21.07
0.976314	20.3536
0.981286	21.5175
0.981435	20.5762
0.985587	29.9903
0.983511	23.7625
0.986163	25.301