File: data/nitrogen-adsorption-isotherms/cg500149s_page_9_compound 1_ads.txt
# Relative Pressure (p/p0)    Quantity Adsorbed
2.41161e-05	 2.11566
0.0139929	2.99249
0.0279616	3.86933
0.0503525	4.30094
0.0727711	4.0703
0.100783	4.05793
0.123155	4.93105
0.153959	5.1382
0.179169	5.12707
0.20438	5.11594
0.249171	5.75842
0.302384	5.95568
0.355588	6.37369
0.403189	6.79417
0.459203	6.99019
0.515227	6.96546
0.560027	7.38718
0.6076	8.46993
0.658012	8.66842
0.708415	9.08767
0.756007	9.72891
0.803636	9.48713
0.8512	10.7906
0.879193	11.2198
0.904385	11.6502
0.921174	12.0842
0.943565	12.5159
0.968738	13.3877