File: data/nitrogen-adsorption-isotherms/cg500149s-si_page_12_compound 4_ads.txt
# Relative Pressure (p/p0)    Quantity Adsorbed
0.0159236	 0.566125
0.0414013	0.698183
0.0636943	0.717399
0.0923567	0.811922
0.117834	0.906386
0.140127	0.963196
0.16242	1.00121
0.187898	1.05808
0.213376	1.07736
0.264331	1.20989
0.315287	1.24844
0.366242	1.32459
0.417197	1.40074
0.471338	1.45814
0.519108	1.51543
0.585987	1.57308
0.640127	1.5929
0.687898	1.66898
0.732484	1.7826
0.783439	1.89634
0.843949	2.01026
0.888535	2.18027
0.93949	2.3692
0.990446	2.46414
-0.0191083	-8.98341
0.00636943	-8.90774
0.0318471	-8.71929
0.0796178	-8.41764
0.124204	-8.19124
0.171975	-7.94598
0.213376	-7.75723
0.261146	-7.54957
0.308917	-7.3231
0.356688	-7.13424
0.407643	-6.92651
0.43949	-6.70035
0.503185	-6.45479
0.535032	-6.20983
0.585987	-5.96451
0.636943	-5.62521
0.678344	-5.34248
0.729299	-5.11595
0.770701	-4.77683
0.792994	-4.56964
0.828025	-4.30583
0.856688	-4.09852
0.89172	-3.79711