File: data/nitrogen-adsorption-isotherms/cg500091k_page_4_JLU-Liu4_des.txt
# Relative Pressure (p/p0)    Quantity Adsorbed
0.993958	 308.709
0.966767	304.629
0.927492	303.188
0.909366	303.139
0.882175	304.403
0.858006	303.002
0.824773	302.913
0.800604	302.849
0.749245	302.712
0.694864	299.894
0.646526	297.094
0.598187	298.3
0.501511	295.37
0.501511	295.37
0.546828	296.827
0.44713	292.553
0.392749	292.408
0.347432	290.951
0.299094	288.15
0.244713	283.997
0.196375	281.196
0.135952	277.027
0.0906344	268.891
0.0513595	263.442
0.00302115	209.878