File: data/nitrogen-adsorption-isotherms/cg500149s-si_page_12_compound 4_des.txt
# Relative Pressure (p/p0)    Quantity Adsorbed
0.941781	 7.43081
0.900685	7.2381
0.859589	7.12702
0.835616	6.96245
0.773973	6.76861
0.739726	6.52185
0.688356	6.27416
0.640411	5.99944
0.585616	5.64272
0.530822	5.34042
0.486301	5.09309
0.438356	4.81838
0.393836	4.48942
0.349315	4.10605
0.291096	3.72193
0.243151	3.31115
0.191781	2.87298
0.143836	2.51663
0.0993151	1.9972
0.0719178	1.7236
0.0479452	1.42298