File: data/nitrogen-adsorption-isotherms/cg500149s_page_9_compound 2_des.txt
# Relative Pressure (p/p0)    Quantity Adsorbed
0.961599	 9.00579
0.943785	9.14161
0.906176	8.61569
0.896279	8.61727
0.864608	8.62233
0.838876	8.62643
0.801267	7.56861
0.747823	7.04522
0.694378	6.52183
0.644893	6.52973
0.595408	6.27167
0.549881	6.01298
0.498416	5.75523
0.444972	5.23184
0.399446	4.97315
0.34996	4.71509
0.300475	4.32405