File: data/nitrogen-adsorption-isotherms/cg500149s_page_9_compound 2_ads.txt
# Relative Pressure (p/p0)    Quantity Adsorbed
0.0104143	 1.54875
0.0284295	1.77665
0.0489508	1.90924
0.068134	2.2129
0.0866984	2.54858
0.10662	2.6727
0.125664	2.91348
0.144822	2.95341
0.164516	3.24306
0.181535	3.34098
0.202562	3.424
0.218622	3.84832
0.235062	4.29326
0.251429	3.79859
0.26759	4.03736
0.303506	3.49042
0.319936	4.14675
0.353861	3.82711
0.36959	4.42302
0.404381	4.05619
0.42012	4.76625
0.453164	4.33321
0.50369	4.63155
0.520018	5.42296
0.554218	4.94586
0.569	5.7583
0.593971	6.40291
0.607025	5.42427
0.6212	6.16851
0.648852	5.79932
0.667162	6.34319
0.686258	6.38338
0.720686	6.76938
0.746683	6.79219
0.763371	7.01432
0.782871	6.98307
0.802662	6.88428
0.821764	7.6311
0.896694	8.20491
1.00216	9.41252
0.929872	8.46154