File: data/nitrogen-adsorption-isotherms/cg500121f_page_2_1_des.txt
# Relative Pressure (p/p0)    Quantity Adsorbed
1.00562	 95.7853
0.900818	91.4267
0.775562	86.1968
0.640082	80.1062
0.527607	73.1887
0.392127	65.3974
0.261759	56.761
0.131391	44.7232
0.0623722	33.5983
0.0316973	29.3153
0.00357873	24.1846
0.00357873	19.0826
0.00357873	4.62679