File: data/nitrogen-adsorption-isotherms/cg500121f_page_2_1_ads.txt
# Relative Pressure (p/p0)    Quantity Adsorbed
0.00357873	 1.22543
0.00613497	8.03076
0.0189162	10.5948
0.0368098	16.5655
0.0649284	25.9479
0.103272	30.2387
0.133947	37.0727
0.205521	45.6492
0.279652	52.5275
0.351227	59.4033
0.420245	64.5758
0.486708	68.0449
0.558282	72.3697
0.629857	76.6944
0.701431	81.0192
0.77045	83.6406
0.839468	87.1124
0.880368	89.7051
0.921268	90.5972
0.962168	92.3396