File: data/nitrogen-adsorption-isotherms/cg500149s-si_page_12_compound 3_des.txt
# Relative Pressure (p/p0)    Quantity Adsorbed
0.936306	 2.36914
0.882166	2.29293
0.815287	2.19769
0.761146	2.12149
0.716561	2.06426
0.665605	1.95052
0.611465	1.9307
0.566879	1.85468
0.519108	1.79739
0.464968	1.64599
0.429936	1.64534
0.38535	1.56931
0.33758	1.47443
0.286624	1.43587
0.229299	1.28442
0.184713	1.1896
0.133758	1.07586
0.0859873	0.924585