File: data/nitrogen-adsorption-isotherms/cg5008236-si_page_10_1_ads.txt
# Relative Pressure (p/p0)    Quantity Adsorbed
0.00202944	 3.27273
0.0153905	3.92727
0.0267913	3.27273
0.053458	3.27273
0.0896623	3.6
0.116329	3.6
0.141091	3.6
0.169662	3.6
0.192506	3.27273
0.215363	3.27273
0.23822	3.27273
0.266791	3.27273
0.285811	2.61818
0.314369	2.29091
0.339131	2.29091
0.363893	2.29091
0.382954	2.61818
0.407702	2.29091
0.436246	1.63636
0.466722	1.63636
0.483865	1.63636
0.504831	1.96364
0.535307	1.96364
0.560042	1.30909
0.586708	1.30909
0.609552	0.981818
0.636274	2.29091
0.666694	0.981818
0.689565	1.30909
0.710518	1.30909
0.737212	1.96364
0.75626	1.96364
0.792478	2.61818
0.832478	2.61818
0.85343	2.61818
0.876301	2.94545
0.908724	3.92727
0.927813	4.90909
0.939366	7.85455
0.956592	9.81818
0.966185	11.4545
0.981728	18.6545
0.991778	31.0909
0.995962	39.9273