File: data/nitrogen-adsorption-isotherms/cg5008236-si_page_10_1_des.txt
# Relative Pressure (p/p0)    Quantity Adsorbed
0.982061	 26.5091
0.976083	20.2909
0.960596	14.4
0.935626	9.49091
0.905011	6.21818
0.882113	5.23636
0.849662	3.6
0.809593	1.96364
0.779089	1.30909