File: data/nitrogen-adsorption-isotherms/cg501141m_page_7_Co90-INA_ads.txt
# Relative Pressure (p/p0)    Quantity Adsorbed
0.0276257	 211.207
0.0403623	213.305
0.0481476	217.131
0.0558987	217.327
0.0768073	222.108
0.0845604	222.514
0.105844	224.894
0.119569	226.426
0.131098	226.948
0.152472	228.376
0.16033	229.39
0.179239	229.861
0.186573	230.877
0.205254	231.201
0.215994	232.294
0.231177	232.6
0.237863	233.631
0.257402	233.574
0.268469	234.243
0.283176	234.548
0.298381	235.056
0.307674	235.888
0.332287	236.71
0.340422	236.721
0.358312	237.455
0.369839	237.699
0.384176	238.26
0.408557	238.919
0.419924	238.987
0.434259	239.375
0.447752	240.018
0.460233	239.832
0.476074	240.811
0.486637	240.643
0.509499	240.926
0.521286	241.637
0.535479	241.592
0.551202	242.853
0.5612	241.991
0.584604	242.548
0.596406	242.728
0.610653	242.943
0.625824	243.851
0.636149	243.059
0.660992	243.611
0.675903	244.554
0.68678	243.887
0.709981	244.627
0.723197	244.924
0.735852	244.79
0.760061	245.443
0.773279	245.846
0.785105	245.436
0.81004	246.024
0.835023	246.429
0.859525	246.86
0.884763	247.245
0.909209	247.794
0.934063	247.982
0.958891	248.587
0.985084	249.191
0.998567	249.679
1.00556	249.628