File: data/nitrogen-adsorption-isotherms/cg500091k_page_4_JLU-Liu4_ads.txt
# Relative Pressure (p/p0)    Quantity Adsorbed
0.0060241	 2.67176
0.0301205	2.67176
0.063253	2.67176
0.0813253	4.00763
0.0963855	4.00763
0.11747	4.00763
0.159639	4.00763
0.195783	4.00763
0.21988	4.00763
0.246988	2.67176
0.292169	92.1756
0.340361	134.924
0.400602	172.328
0.460843	200.382
0.509036	217.748
0.542169	227.099
0.590361	240.458
0.644578	252.481
0.695783	260.496
0.740964	269.847
0.795181	275.191
0.816265	277.863
0.840361	281.87
0.86747	285.878
0.89759	288.55
0.912651	291.221
0.939759	295.229
0.96988	301.908