File: data/nitrogen-adsorption-isotherms/cg500121f_page_2_2_ads.txt
# Relative Pressure (p/p0)    Quantity Adsorbed
-0.00408998	 5.4693
-0.00153374	13.125
-0.00153374	17.3767
-0.00153374	25.8801
-0.00153374	32.6828
0.00102249	42.0391
0.00102249	46.2908
0.00102249	50.5425
0.00102249	55.6446
0.00102249	62.4473
0.00102249	70.9507
0.00102249	78.6038
0.00102249	86.2568
0.00613497	93.9151
0.00613497	98.1668
0.00613497	102.419
0.0112474	108.376
0.0138037	113.481
0.0291411	131.354
0.0572597	140.736
0.0828221	145.864
0.0981595	146.73
0.121166	150.155
0.136503	151.021
0.15184	154.438
0.174847	157.863
0.19274	159.582
0.264315	163.906
0.300102	163.943
0.351227	166.546
0.399796	166.596
0.453476	167.501
0.502045	168.401
0.548057	170.148
0.601738	170.203
0.652863	171.956
0.701431	172.856
0.747444	172.903
0.803681	172.96
0.821575	173.829
0.852249	174.71
0.875256	174.734
0.898262	175.608
0.954499	176.515
0.995399	176.557