File: data/nitrogen-adsorption-isotherms/cg501332u_page_4_2'_ads.txt
# Relative Pressure (p/p0)    Quantity Adsorbed
0.00182149	 23.3153
-0.000455373	84.988
0.00409836	144.404
0.0428051	163.207
0.06102	164.711
0.0815118	166.968
0.104281	166.968
0.131603	169.224
0.158925	169.976
0.183971	169.976
0.21357	171.48
0.238616	172.984
0.263661	171.48
0.279599	173.736
0.316029	173.736
0.36612	173.736
0.409381	175.241
0.457195	175.993
0.51184	175.241
0.559654	175.241
0.614299	175.993
0.657559	176.745
0.709927	178.249
0.760018	178.249
0.812386	177.497
0.8602	179.001
0.912568	179.001
0.960383	180.505
0.983151	182.01
1.00137	182.762