File: data/nitrogen-adsorption-isotherms/cg500149s_page_9_compound 1_des.txt
# Relative Pressure (p/p0)    Quantity Adsorbed
0.985536	 13.6011
0.960344	13.1707
0.943537	13.1781
0.90714	12.7527
0.887551	12.3198
0.867952	12.1077
0.84275	11.8981
0.792366	11.0374
0.741964	10.6181
0.691571	9.97811
0.641177	9.33811
0.596368	9.13714
0.540381	8.27886
0.49278	7.85837
0.442377	7.43912
0.389164	7.24187
0.344346	7.26165
0.291179	5.96062