File: data/nitrogen-adsorption-isotherms/cg500091k_page_4_JLU-Liu3_ads.txt
# Relative Pressure (p/p0)    Quantity Adsorbed
0.0060241	 -1.33588
0.0331325	-1.33588
0.0662651	-1.33588
0.13253	-2.67176
0.159639	-1.33588
0.198795	-1.33588
0.274096	0.0
0.319277	1.33588
0.370482	1.33588
0.415663	0.0
0.442771	259.16
0.566265	289.885
0.620482	295.229
0.671687	301.908
0.695783	303.244
0.75	307.252
0.792169	305.916
0.813253	308.588
0.843373	308.588
0.864458	309.924
0.864458	309.924
0.891566	308.588
0.924699	312.595
0.945783	316.603
0.972892	316.603
0.993976	319.275