File: data/nitrogen-adsorption-isotherms/cg501332u_page_4_1'_ads.txt
# Relative Pressure (p/p0)    Quantity Adsorbed
0	 46.9314
-0.000455373	72.2022
0.00182149	95.5174
0.00182149	118.081
0.00182149	121.841
0.00182149	127.858
0.00637523	135.379
0.0132058	145.909
0.0200364	150.421
0.0291439	153.43
0.0336976	153.43
0.0473588	157.942
0.06102	160.199
0.0815118	161.703
0.111111	163.207
0.13388	163.207
0.161202	163.959
0.186248	166.968
0.21357	166.968
0.236339	166.968
0.261384	167.72
0.28643	169.976
0.306922	169.224
0.361566	169.224
0.407104	169.224
0.457195	168.472
0.505009	169.224
0.561931	169.976
0.607468	168.472
0.659836	169.224
0.712204	168.472
0.760018	168.472
0.812386	168.472
0.8602	166.215
0.910291	165.463
0.960383	169.976
0.992259	169.224
0.999089	175.993