File: data/nitrogen-adsorption-isotherms/cg5008236-si_page_10_2_des.txt
# Relative Pressure (p/p0)    Quantity Adsorbed
0.986692	 27.3214
0.954373	21.8571
0.925856	21.2143
0.876426	20.25
0.842205	18.9643
0.80038	19.2857
0.775665	19.2857
0.750951	18.6429
0.701521	18.3214
0.678707	17.3571
0.652091	18.0
0.627376	17.6786
0.606464	17.0357
0.576046	17.3571
0.558935	17.3571
0.536122	17.3571
0.507605	16.3929
0.484791	15.1071
0.463878	13.8214
0.437262	13.5
0.412548	13.5
0.391635	13.5
0.359316	13.1786
0.336502	12.5357
0.319392	12.8571
0.28327	12.5357
0.264259	12.5357
0.239544	12.5357
0.218631	12.2143
0.188213	11.5714
0.159696	11.5714
0.140684	11.25
0.11597	11.25
0.0912548	10.6071