File: data/nitrogen-adsorption-isotherms/cg501332u_page_4_2'_des.txt
# Relative Pressure (p/p0)    Quantity Adsorbed
0.971767	 182.01
0.944444	182.01
0.898907	180.505
0.844262	180.505
0.796448	179.001
0.748634	179.001
0.693989	179.001
0.643898	179.001
0.593807	179.001
0.543716	179.001
0.498179	177.497
0.448087	175.241
0.400273	175.993
0.345628	174.489
0.29326	175.241
0.270492	175.241
0.25	174.489
0.222678	172.984
0.197632	172.984
0.17714	172.984
0.147541	172.984
0.117942	171.48
0.095173	170.728