File: data/nitrogen-adsorption-isotherms/cg500121f_page_2_2_des.txt
# Relative Pressure (p/p0)    Quantity Adsorbed
0.995399	 181.659
0.96728	178.229
0.96728	178.229
0.982618	178.245
0.941718	175.652
0.92638	175.636
0.898262	175.608
0.875256	174.734
0.852249	175.561
0.826687	175.535
0.798569	175.506
0.755112	173.761
0.701431	173.706
0.647751	172.801
0.601738	172.754
0.550613	172.702
0.499489	172.65
0.445808	172.595
0.399796	171.698
0.348671	171.646
0.297546	169.893
0.248978	169.843
0.202965	168.946
0.149284	168.041
0.121166	168.012
0.100716	166.291
0.0802658	163.719