File: data/nitrogen-adsorption-isotherms/cg500149s-si_page_12_compound 3_ads.txt
# Relative Pressure (p/p0)    Quantity Adsorbed
0.0159236	 0.566125
0.0414013	0.698183
0.0636943	0.717399
0.0923567	0.811922
0.117834	0.906386
0.140127	0.963196
0.16242	1.00121
0.187898	1.05808
0.213376	1.07736
0.264331	1.20989
0.315287	1.24844
0.366242	1.32459
0.417197	1.40074
0.471338	1.45814
0.519108	1.51543
0.585987	1.57308
0.640127	1.5929
0.687898	1.66898
0.732484	1.7826
0.783439	1.89634
0.843949	2.01026
0.888535	2.18027
0.93949	2.3692
0.990446	2.46414