File: data/nitrogen-adsorption-isotherms/cg501332u_page_4_1'_des.txt
# Relative Pressure (p/p0)    Quantity Adsorbed
1.00137	 171.48
0.978597	171.48
0.951275	168.472
0.898907	168.472
0.846539	167.72
0.798725	169.224
0.748634	169.224
0.698543	169.976
0.650729	170.728
0.596084	170.728
0.550546	172.984
0.498179	172.984
0.448087	171.48
0.397996	170.728
0.350182	170.728
0.295537	170.728
0.268215	169.976
0.25	169.224
0.224954	168.472
0.199909	168.472
0.17031	166.968
0.147541	167.72