File: data/nitrogen-adsorption-isotherms/cg500091k_page_4_JLU-Liu3_des.txt
# Relative Pressure (p/p0)    Quantity Adsorbed
0.996988	 327.29
0.972892	321.947
0.924699	319.275
0.900602	319.275
0.876506	317.939
0.855422	319.275
0.825301	317.939
0.807229	317.939
0.798193	317.939
0.75	316.603
0.677711	313.931
0.626506	313.931
0.599398	313.931
0.548193	312.595
0.5	311.26
0.448795	311.26
0.39759	311.26
0.346386	309.924
0.304217	309.924
0.246988	307.252
0.198795	307.252
0.141566	307.252
0.0933735	304.58
0.0572289	299.237
0.0060241	247.137