File: data/nitrogen-adsorption-isotherms/cg501141m_page_7_Co90-INA_des.txt
# Relative Pressure (p/p0)    Quantity Adsorbed
0.0296914	 215.851
0.0368161	216.542
0.0519722	221.142
0.0595189	221.959
0.0784996	225.999
0.0928738	228.17
0.102955	228.397
0.123843	230.237
0.136508	231.731
0.149158	231.723
0.16484	233.567
0.174373	233.068
0.195702	234.195
0.203303	235.065
0.221399	235.335
0.236402	236.705
0.246961	236.165
0.269645	236.918
0.279929	237.951
0.295379	237.75
0.308971	239.184
0.320827	238.535
0.344487	239.324
0.355557	240.323
0.370007	240
0.384972	241.08
0.395738	240.496
0.41871	241.117
0.428995	242.198
0.444191	241.693
0.457316	242.827
0.470425	242.301
0.477585	243.064
0.497413	243.035
0.511216	244.192
0.520991	244.098
0.542441	244.475
0.555101	245.438
0.567959	244.9
0.58342	245.902
0.593979	245.252
0.617347	245.474
0.63181	246.493
0.642864	245.794
0.65854	247.01
0.668805	245.97
0.691774	246.302
0.702554	247.213
0.717252	246.628
0.731965	247.531
0.743232	246.855
0.758693	247.865
0.768382	247.153
0.791642	247.571
0.804301	248.454
0.817158	247.786
0.832121	248.643
0.842886	247.947
0.866756	248.148
0.879415	249.013
0.892522	248.256
0.907733	249.367
0.918001	248.59
0.941659	248.865
0.949166	249.733
0.968393	249.165
0.975398	250.085