File: data/nitrogen-adsorption-isotherms/cg901128k_page_6_3_des.txt
# Relative Pressure (p/p0)    Quantity Adsorbed
0.918622	 49.9936
0.823459	49.9725
0.725714	50.1359
0.625387	50.484
0.527661	50.2771
0.427363	50.0696
0.33219	50.2337
0.22932	50.0256
0.134166	49.8193
0.0313916	47.7594
0.00582412	44.7908
0.000918295	40.16
0.00112786	36.086