File: data/nitrogen-adsorption-isotherms/cg901128k_page_6_3_ads.txt
# Relative Pressure (p/p0)    Quantity Adsorbed
0.000403897	 0.15992
0.000289587	2.38212
-0.00252055	7.01112
0.0023567	12.1974
-0.00301589	16.6406
-0.000691579	21.456
-0.000948777	26.4559
0.00384274	33.3088
0.00375701	34.9755
0.0370118	38.5014
0.0548919	40.9128
0.0908045	42.7726
0.206382	45.9464
0.309204	47.0804
0.414646	47.289
0.520088	47.4976
0.61006	48.4435
0.715493	48.8373
0.820954	48.6756
0.921261	48.6979
1.00865	49.8284