File: data/nitrogen-adsorption-isotherms/cg901312t_page_3_1_ads.txt
# Relative Pressure (p/p0)    Quantity Adsorbed
0.031746	 91.0849
0.0572562	96.2685
0.079932	97.8857
0.110639	99.2975
0.134259	100.145
0.15788	100.805
0.183862	101.466
0.209845	101.939
0.235828	102.317
0.259448	102.884
0.287793	103.263
0.309051	103.453
0.33031	103.926
0.361017	104.211
0.384637	104.496
0.405896	104.78
0.427154	104.877
0.455499	105.444
0.488568	105.73
0.509826	105.827
0.531085	105.923
0.561791	105.928
0.58305	106.681
0.609033	106.872
0.639739	106.97
0.656274	107.066
0.682256	107.258
0.708239	107.449
0.729497	108.202
0.757842	108.394
0.781463	108.585
0.805083	108.776
0.828704	109.248
0.854686	109.627
0.878307	110.85
0.904289	111.323
0.930272	111.983
0.951531	113.112
0.977513	114.711