File: data/nitrogen-adsorption-isotherms/cg901312t_page_3_1_des.txt
# Relative Pressure (p/p0)    Quantity Adsorbed
0.998772	 116.028
0.963341	115.46
0.944444	115.082
0.9161	114.609
0.894841	113.949
0.871221	113.477
0.845238	113.098
0.821618	112.344
0.795635	111.59
0.76729	110.835
0.74367	110.175
0.717687	110.172
0.689342	109.792
0.670446	109.321
0.644463	109.036
0.618481	108.751
0.592498	108.841
0.568878	108.462
0.540533	108.177
0.519274	107.893
0.493292	107.701
0.469671	107.51
0.443689	106.944
0.415344	106.659
0.391723	106.561
0.370465	106.089
0.344482	105.711
0.320862	105.332
0.292517	104.765
0.271259	104.387
0.245276	103.82
0.219293	103.441
0.195673	102.875
0.167328	102.027
0.14607	101.179
0.122449	100.519
0.0964664	99.1079
0.0704837	97.4152
0.0515873	95.2543