File: data/nitrogen-adsorption-isotherms/cm500700z_page_5_compound 3_ads.txt
# Relative Pressure (p/p0)    Quantity Adsorbed
-0.00222717	 51.3473
0.0	70.7338
-0.00222717	82.7644
0.0	91.4558
0.0	96.8034
0.0	100.146
0.0	106.162
0.0	110.841
0.00222717	131.564
0.00445434	142.929
0.00222717	158.971
0.00222717	158.971
0.00222717	163.65
0.00222717	169.666
0.00222717	175.013
0.00445434	152.288
0.00222717	190.388
0.00222717	196.404
0.00222717	203.757
0.00222717	206.431
0.00222717	209.773
0.00445434	213.116
0.00890869	217.13
0.013363	222.481
0.0155902	225.156
0.0178174	229.168
0.0222717	233.182
0.0289532	235.192
0.0334076	236.532
0.0400891	239.21
0.0534521	241.893
0.064588	243.905
0.0890869	247.932
0.200445	256.697
0.305122	263.451
0.403118	266.19
0.498886	266.254
0.605791	269
0.701559	271.069
0.799555	273.808
0.899777	273.875
0.993318	283.296