File: data/nitrogen-adsorption-isotherms/cm500700z_page_5_compound 3_des.txt
# Relative Pressure (p/p0)    Quantity Adsorbed
0.877506	 277.871
0.777283	274.462
0.679287	273.728
0.599109	273.006
0.505568	272.275
0.403118	266.859
0.298441	264.115
0.200445	258.702
0.0979955	249.275