File: data/nitrogen-adsorption-isotherms/cm503311x-si_page_7_mono-lp-[AlF(bdc)]_ads.txt
# Relative Pressure (p/p0)    Quantity Adsorbed
0.00219786	 249.448
0.00216787	256.256
0.00579698	265.782
0.0149387	273.937
0.0314347	279.357
0.0314347	279.357
0.0571144	283.4
0.0571144	283.4
0.0809765	283.361
0.101156	286.051
0.101156	286.051
0.123188	284.653
0.145191	290.064
0.161711	290.037
0.183725	292.725
0.203928	289.968
0.251635	293.975
0.301194	293.894
0.352584	295.172
0.403979	295.088
0.453527	297.73
0.49941	299.017
0.552647	297.568
0.602195	300.211
0.653602	297.403
0.754539	301.323
0.754539	301.323
0.706815	301.401
0.804099	301.242
0.829785	303.924
0.846305	303.897
0.879344	303.843
0.901365	305.168
0.925209	309.214
0.954554	314.613
0.972897	317.306
0.976533	325.47
0.98559	352.689
0.992477	456.163
0.996244	434.371
0.992621	423.483
0.985434	388.092