File: data/nitrogen-adsorption-isotherms/cm503311x-si_page_7_mono-lp-[AlF(bdc)]_des.txt
# Relative Pressure (p/p0)    Quantity Adsorbed
0.0479066	 290.223
0.0882587	296.965
0.123122	299.632
0.202045	300.865
0.251605	300.784
0.297487	302.07
0.352548	303.342
0.400278	301.902
0.453497	304.539
0.501221	304.461
0.548952	303.021
0.600335	305.66
0.65173	305.576
0.704955	306.851
0.754509	308.132
0.804063	309.412
0.853617	310.693
0.853617	310.693
0.884833	307.919
0.914172	314.679
0.985506	371.752
0.987072	433.024