File: data/nitrogen-adsorption-isotherms/cm901983a-si_page_11_MlK-100(Al)_ads.txt
# Relative Pressure (p/p0)    Quantity Adsorbed
0.00218292	 207.099
0.00138739	192.431
0.00138739	182.281
0.00138739	172.13
0.00138739	161.98
0.00138739	151.829
0.00138739	141.679
0.00138739	131.528
0.00138739	121.378
0.00138739	111.227
0.00138739	101.077
0.00138739	90.9264
0.00138739	80.7759
0.00138739	70.6254
0.00138739	60.4749
0.00138739	50.3244
0.00138739	40.1739
0.00138739	30.0234
0.00138739	19.8729
0.00066885	9.1342
0.00294423	255.643
0.0024652	241.425
0.0024652	231.274
0.00240532	221.708
0.00408192	286.447
0.00354301	271.686
-0.00130714	265.714
0.00208027	2.83747
0.00496953	304.545
0.00641717	321.731
0.00731535	336.106
0.00996842	347.638
0.0113571	359.384
0.0152911	370.482
0.0199955	382.547
0.0239855	394.643
0.0277938	407.274
0.0326798	418.465
0.0382126	428.862
0.0436016	439.353
0.0489907	449.844
0.0543797	460.365
0.0600607	470.873
0.0645291	482.595
0.0721277	492.566
0.0806065	503.117
0.089229	514.058
0.0982556	524.851
0.104992	534.995
0.110426	546.035
0.115179	557.57
0.123479	566.071
0.134497	572.958
0.145429	579.951
0.158209	584.302
0.170065	586.755
0.181921	588.914
0.193777	590.57
0.205633	592.016
0.217488	593.294
0.229344	594.698
0.2412	595.809
0.253056	596.878
0.264912	598.072
0.276768	599.015
0.288624	599.916
0.30048	600.817
0.312336	601.676
0.324192	602.409
0.336048	603.058
0.347904	603.875
0.359759	604.524
0.371615	604.964
0.383471	605.529
0.395327	606.136
0.407183	606.366
0.419039	607.099
0.430895	607.119
0.442751	607.852
0.454607	607.914
0.466463	608.27
0.478319	608.709
0.490175	608.645
0.50203	609.169
0.513886	609.441
0.525742	609.377
0.537598	609.481
0.549454	610.088
0.56131	610.108
0.573166	610.044
0.585022	610.148
0.596878	610.755
0.608734	610.775
0.62059	610.712
0.632446	610.774
0.644301	611.339
0.656157	611.443
0.668013	611.379
0.679869	611.315
0.691725	611.251
0.703581	611.187
0.715437	611.124
0.727293	611.311
0.739149	611.793
0.751005	611.855
0.762861	611.791
0.774717	611.769
0.786572	612.125
0.798428	612.522
0.810284	612.458
0.82214	612.395
0.833996	612.708
0.845852	613.064
0.857708	613.126
0.869564	613.062
0.88142	613.166
0.893276	613.815
0.905132	613.877
0.916988	614.652
0.928843	615.259
0.940699	616.034
0.952555	616.893
0.964411	618.507
0.976267	620.541
0.988293	624.419
0.996925	631.293