File: data/nitrogen-adsorption-isotherms/ic100188w_page_4_2_ads.txt
# Relative Pressure (p/p0)    Quantity Adsorbed
0.00263158	 4.93421
0.00263158	10.1974
0.00263158	19.7368
0.00263158	19.7368
0.00526316	14.1447
0.0	24.6711
0.00263158	30.5921
0.0	35.1974
0.0	39.4737
0.0	45.0658
0.00263158	50.0
0.00263158	55.2632
0.0	59.8684
0.0	65.7895
0.0	69.0789
0.0	75.0
0.0	79.6053
0.00263158	83.2237
0.0	88.8158
0.0	88.8158
-0.00526316	94.0789
-0.00526316	94.0789
0.0131579	96.3816
0.0368421	97.6974
0.0842105	97.6974
0.0842105	97.6974
0.107895	98.0263
0.171053	98.3553
0.171053	98.3553
0.257895	98.6842
0.3	98.0263
0.347368	98.0263
0.405263	98.3553
0.45	98.3553
0.5	98.3553
0.602632	97.3684
0.602632	97.3684
0.65	97.0395
0.752632	97.3684
0.752632	97.3684
0.697368	97.0395
0.8	97.3684
0.821053	96.7105
0.85	96.3816
0.873684	96.0526
0.9	96.0526
0.926316	96.3816
0.95	96.0526
0.976316	96.0526
0.997368	96.7105