File: data/nitrogen-adsorption-isotherms/ic1010083_page_4_1a_ads.txt
# Relative Pressure (p/p0)    Quantity Adsorbed
0.00437631	 83.1106
0.00625582	97.4385
0.00592414	105.498
0.0106137	111.542
0.0154046	115.123
0.0269673	134.15
0.0293996	135.045
0.0392486	135.715
0.0441869	135.714
0.0515851	135.936
0.0589742	136.382
0.0762307	137.05
0.10833	137.043
0.145349	137.482
0.182368	137.921
0.182368	137.921
0.207059	137.916
0.207059	137.916
0.239158	137.909
0.263841	138.127
0.298409	138.119
0.342845	138.333
0.419388	138.316
0.461364	138.307
0.486028	138.973
0.540359	138.737
0.611955	138.945
0.651462	138.936
0.68849	139.151
0.737882	138.917
0.779858	138.907
0.836639	139.118
0.881057	139.78
0.925465	140.666