File: data/nitrogen-adsorption-isotherms/ic100188w_page_4_2_des.txt
# Relative Pressure (p/p0)    Quantity Adsorbed
0.139474	 98.3553
0.2	98.6842
0.2	98.6842
0.25	98.3553
0.25	98.3553
0.294737	98.0263
0.342105	98.0263
0.4	98.3553
0.444737	98.3553
0.494737	98.0263
0.55	98.0263
0.602632	97.6974
0.65	97.6974
0.694737	97.3684
0.747368	97.3684
0.792105	97.6974
0.815789	97.0395
0.873684	96.3816
0.9	97.3684
0.926316	96.7105
0.944737	96.7105
0.965789	96.7105
0.981579	96.7105
0.997368	97.0395