File: data/nitrogen-adsorption-isotherms/ic1010083_page_4_1a_des.txt
# Relative Pressure (p/p0)    Quantity Adsorbed
0.977142	 144.908
0.878523	141.348
0.878523	141.348
0.92294	142.009
0.841504	140.908
0.797059	140.918
0.757562	140.703
0.718046	140.936
0.67854	140.945
0.636564	140.954
0.594597	140.74
0.572384	140.521
0.515584	140.757
0.476078	140.766
0.411889	140.557
0.411889	140.557
0.448926	140.548
0.35262	140.794
0.335336	140.798
0.295838	140.583
0.256332	140.591
0.211887	140.601
0.172399	140.163
0.13538	139.723
0.0909535	139.285
0.0514838	138.399
0.00720478	134.379