File: data/nitrogen-adsorption-isotherms/ic100188w_page_4_1_ads.txt
# Relative Pressure (p/p0)    Quantity Adsorbed
-0.00526316	 73.3553
-0.00263158	78.9474
0.00526316	85.8553
0.0263158	89.8026
0.0578947	91.4474
0.0710526	92.1053
0.115789	92.7632
0.136842	92.7632
0.171053	92.7632
0.247368	92.7632
0.294737	93.0921
0.347368	92.1053
0.402632	92.1053
0.45	92.1053
0.5	92.4342
0.594737	91.1184
0.65	90.4605
0.707895	91.1184
0.755263	89.8026
0.794737	90.7895
0.831579	90.4605
0.847368	90.1316
0.884211	90.4605
0.905263	90.1316
0.95	90.1316
0.968421	89.8026
0.989474	89.8026