File: data/nitrogen-adsorption-isotherms/ic100188w_page_4_1_des.txt
# Relative Pressure (p/p0)    Quantity Adsorbed
0.997368	 89.1447
0.944737	89.8026
0.921053	89.8026
0.897368	89.8026
0.860526	90.4605
0.860526	90.4605
0.834211	90.4605
0.75	90.4605
0.75	90.4605
0.7	91.1184
0.594737	91.1184
0.594737	91.1184
0.497368	91.7763
0.45	92.1053
0.45	92.1053
0.347368	92.7632
0.292105	92.7632
0.242105	92.7632
0.202632	93.0921
0.147368	93.0921
0.147368	93.0921
0.0921053	92.7632