File: data/nitrogen-adsorption-isotherms/ic200054b_page_4_MOF-5_ads.txt
# Relative Pressure (p/p0)    Quantity Adsorbed
0.0101192	 83.9955
0.00703543	187.037
0.0116021	755.757
0.0119897	931.331
0.0156296	1080.2
0.0256393	1114.59
0.0422294	1129.92
0.0754097	1160.58
0.0754434	1175.85
0.115221	1195.08
0.178169	1210.59
0.264347	1249.09
0.231192	1229.88
0.314033	1256.91
0.38694	1283.91
0.502852	1291.98
0.569078	1292.24
0.67177	1311.71
0.787673	1315.97
0.893634	1316.38
0.986393	1335.81