File: data/nitrogen-adsorption-isotherms/ic202769e_page_2_1_des.txt
# Relative Pressure (p/p0)    Quantity Adsorbed
0.0925272	 4.81608
0.141814	4.99726
0.193405	4.89959
0.244955	4.98768
0.30101	4.98247
0.350255	5.34942
0.401847	5.25174
0.453396	5.33984
0.504988	5.24216
0.556558	5.23737
0.612592	5.32505
0.659679	5.32068
0.711249	5.31589
0.762882	5.03245
0.816674	5.12034
0.872688	5.30089
0.926438	5.57454
0.980146	6.03395