File: data/nitrogen-adsorption-isotherms/ic200054b_page_4_1_ads.txt
# Relative Pressure (p/p0)    Quantity Adsorbed
0.000513966	 232.814
0.00718709	255.74
0.00724607	282.458
0.0172979	335.931
0.0702953	343.767
0.0702953	343.767
0.11667	351.578
0.166339	351.767
0.209386	351.932
0.265678	352.146
0.312044	356.14
0.368336	356.355
0.421317	356.557
0.467683	360.551
0.520672	364.57
0.570342	364.76
0.6167	364.937
0.66968	365.139
0.7293	373
0.775667	376.994
0.822016	373.354
0.871686	373.543
0.918052	377.537
0.967713	373.91
0.9909	377.815