File: data/nitrogen-adsorption-isotherms/ic200054b_page_4_MOF-5_des.txt
# Relative Pressure (p/p0)    Quantity Adsorbed
0.870455	 1316.29
0.764486	1312.07
0.655197	1304.01
0.54921	1292.16
0.49623	1291.96
0.446543	1284.13
0.383621	1280.08
0.333909	1260.8
0.277584	1245.32
0.214635	1229.81
0.161621	1214.34
0.101967	1191.22
0.0588448	1156.7