File: data/nitrogen-adsorption-isotherms/ic202769e_page_2_1_ads.txt
# Relative Pressure (p/p0)    Quantity Adsorbed
0.00583111	 1.48048
0.0191593	2.03651
0.0571934	2.4045
0.0571934	2.4045
0.0392767	2.31328
0.0817951	2.68085
0.106439	2.77144
0.133345	2.76894
0.16021	2.95221
0.193843	2.94908
0.218424	3.31832
0.240866	3.22335
0.265531	3.22106
0.319302	3.40183
0.370831	3.5828
0.417917	3.57842
0.480678	3.66547
0.529985	3.75377
0.579313	3.74919
0.626379	3.8377
0.684634	4.01805
0.736184	4.10614
0.78545	4.3802
0.839284	4.28232
0.890771	4.64906
0.942279	4.92291
0.986936	5.75468