File: data/nitrogen-adsorption-isotherms/ic200054b_page_4_1_des.txt
# Relative Pressure (p/p0)    Quantity Adsorbed
0.947862	 381.468
0.891562	377.436
0.82863	369.562
0.782272	369.385
0.739226	369.221
0.692868	369.044
0.639904	376.476
0.590226	372.469
0.540549	368.463
0.500805	364.494
0.451135	364.305
0.398146	360.286
0.345166	360.083
0.285554	356.039
0.24913	355.9
0.182879	344.197
0.136529	347.837
0.096794	347.685
0.0537305	339.887
0.0371656	336.007
0.0139529	320.651