File: data/nitrogen-adsorption-isotherms/ic400607w_page_2_ZTOF-1_ads.txt
# Relative Pressure (p/p0)    Quantity Adsorbed
-0.00481454	 9.7561
0.00099409	18.4959
-0.0010227	23.5772
-0.000972635	30.6911
-0.000929724	36.7886
-0.000893966	41.8699
-0.000858207	46.9512
-0.000779538	58.1301
-0.000679414	72.3577
-0.000615048	81.5041
-0.000543531	91.6667
-0.00045771	103.862
-0.000328979	122.154
-0.0002074	139.431
-0.0002074	139.431
0.00193812	152.642
-3.57586e-05	163.821
1.43035e-05	170.935
8.58207e-05	181.098
0.00220988	191.26
0.00225995	198.374
0.000300372	211.585
0.00447698	221.748
0.0045628	233.943
0.00462717	243.089
0.017014	253.252
0.0375966	261.382
0.0622701	267.48
0.10129	270.528
0.134145	272.561
0.17727	275.61
0.216268	275.61
0.257341	278.659
0.306602	278.659
0.353824	280.691
0.405152	282.724
0.44827	284.756
0.50778	282.724
0.557041	282.724
0.59812	286.789
0.651508	289.837
0.706927	289.837
0.752083	289.837
0.799291	289.837
0.852679	292.886
0.897835	292.886
0.934795	294.919
0.986137	298.984