File: data/nitrogen-adsorption-isotherms/ic400607w_page_2_ZTOF-1_des.txt
# Relative Pressure (p/p0)    Quantity Adsorbed
0.979987	 300
0.930704	296.951
0.875278	295.935
0.826024	296.951
0.780875	297.967
0.727495	295.935
0.680294	296.951
0.62898	296.951
0.575592	293.902
0.528384	293.902
0.479094	289.837
0.429776	281.707
0.384613	280.691
0.327127	278.659
0.277859	277.642
0.236801	276.626
0.191638	275.61
0.152639	275.61
0.111553	270.528
0.0869006	267.48
0.0540527	266.463
0.0232073	258.333
0.00674408	252.236