File: data/nitrogen-adsorption-isotherms/ic5008457_page_5_1e_des.txt
# Relative Pressure (p/p0)    Quantity Adsorbed
0.993318	 185.465
0.982183	183.14
0.966592	177.907
0.937639	172.093
0.910913	170.349
0.893096	167.442
0.841871	162.791
0.775056	158.14
0.730512	156.977
0.688196	155.814
0.639198	154.651
0.5902	154.07
0.538976	153.488
0.487751	152.907
0.436526	152.326
0.385301	151.163
0.336303	151.163
0.289532	150.0
0.238307	149.419
0.191537	149.419
0.167038	148.256
0.138085	148.256
0.115813	147.093
0.100223	146.512