File: data/nitrogen-adsorption-isotherms/ic501801f_page_6_2_des.txt
# Relative Pressure (p/p0)    Quantity Adsorbed
0.774522	 210.986
0.716773	210.552
0.706582	210.583
0.684501	210.651
0.667516	210.702
0.648832	210.15
0.631847	210.201
0.608068	209.664
0.591083	209.716
0.574098	209.768
0.557113	209.21
0.535032	208.667
0.519745	208.714
0.501062	208.771
0.478981	208.838
0.467091	208.265
0.448408	208.322
0.428025	207.164
0.409342	207.221
0.394055	206.658
0.371975	206.116
0.353291	205.563
0.339703	205.604
0.319321	204.447
0.300637	203.894
0.281953	203.951
0.261571	202.794
0.247983	202.225
0.227601	202.288
0.208917	201.125
0.193631	199.952
0.17155	198.8
0.154565	198.242
0.135881	196.47
0.118896	196.521
0.0985138	194.145