File: data/nitrogen-adsorption-isotherms/ic501801f_page_5_2_des.txt
# Relative Pressure (p/p0)    Quantity Adsorbed
0.986827	 187.107
0.973434	185.439
0.946603	185.008
0.918081	185.406
0.918081	185.406
0.926468	185.411
0.897959	184.979
0.877823	185.382
0.840921	185.36
0.840921	185.36
0.825831	184.935
0.810735	184.926
0.788929	184.913
0.748665	185.304
0.748665	185.304
0.770477	184.902
0.733562	185.71
0.715117	185.284
0.696679	184.443
0.683253	184.85
0.661441	185.252
0.646364	183.998
0.627906	184.402
0.606087	185.219
0.585972	184.377
0.569198	184.367
0.53565	184.347
0.53565	184.347
0.554101	184.358
0.51218	183.503
0.48031	183.484
0.48031	183.484
0.498754	183.91
0.461859	183.473
0.438375	183.459
0.42664	183.037
0.404841	182.609
0.366261	182.586
0.366261	182.586
0.346139	182.159
0.332727	181.736
0.315953	181.726
0.292476	181.297
0.275702	181.287
0.26229	180.864
0.24051	179.191
0.222046	180.01
0.201937	178.753
0.18517	178.328
0.16841	177.487
0.149958	177.476
0.133211	175.806
0.114773	174.965
0.0946513	174.538