File: data/nitrogen-adsorption-isotherms/ic501849g-si_page_7_L-2_ads.txt
# Relative Pressure (p/p0)    Quantity Adsorbed
0.981777	 57.0643
0.952164	57.0689
0.919514	56.8175
0.896735	56.5646
0.851177	56.6998
0.822703	56.7042
0.769552	56.4559
0.718299	56.4638
0.670843	56.4711
0.61959	56.6072
0.570235	56.6148
0.518983	56.6227
0.452544	56.7611
0.399393	56.8975
0.351936	56.7766
0.298785	56.7848
0.249431	56.6642
0.201974	56.5433
0.181093	56.5465
0.160213	56.4215
0.143128	56.1677
0.122248	56.1709
0.0975702	55.6619
0.0330296	54.3898
0.0254366	39.7755
0.00645406	37.4708
-0.00113895	30.1642
0.000759301	20.164
0.000759301	10.0357