File: data/nitrogen-adsorption-isotherms/ic501801f_page_5_1_ads.txt
# Relative Pressure (p/p0)    Quantity Adsorbed
0.0168599	 1.2183
0.0293269	2.02257
0.0474506	1.53539
0.0635455	2.04302
0.085687	2.05625
0.105816	2.06828
0.12997	2.08271
0.150099	2.09474
0.16621	1.60636
0.188359	1.12159
0.204446	2.12722
0.226595	1.64245
0.246708	2.65048
0.268858	2.16571
0.284968	1.67733
0.309123	1.69177
0.323197	2.69619
0.349372	2.21383
0.361449	2.22105
0.389637	1.73988
0.413792	1.75432
0.42789	1.26474
0.452012	3.27118
0.468131	2.2848
0.486255	1.79762
0.502342	2.80325
0.53053	2.32209
0.570803	1.35014
0.570803	1.35014
0.542599	2.82731
0.59292	2.85738
0.613057	2.37141
0.631173	2.38224
0.651302	2.39426
0.673451	1.90949
0.687525	2.91392
0.707662	2.42795
0.729803	2.44118
0.747903	3.44801
0.77407	3.46365
0.792178	3.97248
0.816348	2.99091
0.832435	3.99654
0.846533	3.50695
0.872692	4.02059
0.908908	5.03825
0.888803	3.53221
0.931049	5.05148
0.969286	5.57234