File: data/nitrogen-adsorption-isotherms/ic501801f_page_5_2_ads.txt
# Relative Pressure (p/p0)    Quantity Adsorbed
-0.0035058	 20.0972
-0.00382658	40.0174
-0.00247665	60.3535
-0.0011334	81.1046
-0.00480895	101.023
-0.00345902	121.359
-0.000404978	140.036
0.00608403	153.735
0.0143507	161.21
0.0260389	164.537
0.0410819	167.866
0.0628545	169.954
0.0879819	172.044
0.106413	173.3
0.124844	174.556
0.14663	175.814
0.16843	176.242
0.183519	176.667
0.210338	177.928
0.222073	178.35
0.24051	179.191
0.26398	180.035
0.272361	180.455
0.292496	180.052
0.327721	180.073
0.352875	180.503
0.408202	182.196
0.369642	180.928
0.435047	181.797
0.48033	182.239
0.48033	182.239
0.515555	182.26
0.549103	182.28
0.609468	183.561
0.609468	183.561
0.629597	183.573
0.648048	183.584
0.681589	184.019
0.718499	183.626
0.758749	184.065
0.814096	184.513
0.832541	184.939
0.847631	185.364
0.866082	185.375
0.887894	184.973
0.901314	184.981
0.946583	186.253
0.958325	186.26
0.919772	184.577