File: data/nitrogen-adsorption-isotherms/ic502725y-si_page_11_Th6O4(OH)4(H2O)6(bdc)6_des.txt
# Relative Pressure (p/p0)    Quantity Adsorbed
0.074677	 193.356
0.0859375	194.086
0.0972007	194.91
0.108464	195.734
0.119725	196.495
0.130983	197.131
0.142239	197.705
0.153496	198.294
0.164751	198.836
0.176004	199.299
0.18726	199.872
0.198512	200.273
0.209765	200.752
0.221016	201.137
0.232263	201.382
0.243513	201.735
0.254763	202.089
0.266012	202.396
0.277261	202.734
0.288509	203.009
0.299758	203.316
0.311006	203.591
0.322251	203.773
0.333499	204.08
0.344744	204.229
0.355989	204.426
0.367236	204.655
0.378481	204.836
0.389727	205.049
0.400969	205.136
0.412211	205.176
0.423457	205.389
0.4347	205.508
0.445944	205.658
0.45719	205.87
0.46844	206.224
0.479684	206.343
0.490931	206.587
0.502176	206.784
0.513421	206.949
0.524664	207.037
0.535911	207.312
0.547152	207.321
0.558393	207.361
0.569637	207.511
0.580877	207.52
0.592118	207.529
0.603362	207.679
0.614605	207.797
0.625849	207.916
0.637094	208.082
0.648335	208.122
0.659579	208.272
0.670819	208.281
0.682065	208.462
0.693308	208.565
0.70455	208.652
0.715798	208.927
0.72704	209.015
0.738283	209.102
0.749526	209.221
0.760771	209.402
0.772017	209.599
0.783263	209.812
0.79451	210.056
0.805759	210.378
0.817003	210.528
0.828253	210.882
0.839504	211.251
0.850756	211.699
0.862009	212.147
0.873262	212.61
0.884525	213.419
0.89579	214.306
0.907053	215.13
0.918318	216.001
0.929602	217.578
0.940897	219.531
0.952193	221.546
0.96349	223.562
0.974807	226.299
0.986142	229.71
0.997473	232.932
1.00364	234.239