File: data/nitrogen-adsorption-isotherms/ic502725y-si_page_11_Th6O4(OH)4(H2O)6(bdc)6_ads.txt
# Relative Pressure (p/p0)    Quantity Adsorbed
0.0326529	 188.745
0.0439306	190.086
0.0552012	191.177
0.0664653	192.032
0.0777162	192.417
0.0889772	193.163
0.100127	193.977
0.112525	194.812
0.123784	195.48
0.135041	196.069
0.146299	196.72
0.157555	197.278
0.168809	197.773
0.180064	198.33
0.191319	198.856
0.20257	199.226
0.213823	199.689
0.225071	199.996
0.236321	200.319
0.247571	200.688
0.258617	201.057
0.270068	201.302
0.281317	201.624
0.292567	201.946
0.303812	202.128
0.315057	202.325
0.326302	202.49
0.337552	202.828
0.348797	203.025
0.360043	203.222
0.371291	203.514
0.382534	203.616
0.393781	203.876
0.405026	204.026
0.416271	204.207
0.427513	204.295
0.438756	204.398
0.450002	204.61
0.46125	204.886
0.472494	205.02
0.483736	205.107
0.494983	205.336
0.506226	205.454
0.51747	205.573
0.528717	205.817
0.53996	205.936
0.551201	205.96
0.562446	206.126
0.573686	206.135
0.584926	206.143
0.596167	206.184
0.607416	206.475
0.618657	206.515
0.629899	206.602
0.641142	206.705
0.652387	206.855
0.663628	206.895
0.674872	207.045
0.686118	207.258
0.697358	207.267
0.708602	207.385
0.719849	207.629
0.731089	207.638
0.742335	207.851
0.753579	208.001
0.764822	208.088
0.776068	208.301
0.787314	208.498
0.798561	208.773
0.809805	208.908
0.821049	209.042
0.832298	209.364
0.843549	209.734
0.854801	210.182
0.866051	210.52
0.877303	210.952
0.888558	211.478
0.899812	211.989
0.911069	212.578
0.922328	213.276
0.933597	214.289
0.944871	215.52
0.95614	216.533
0.967426	218.188
0.978224	220.629
0.98652	224.941
0.993271	228.835
0.999485	231.821