File: data/nitrogen-adsorption-isotherms/ic502643m-si_page_26_IIa_ads.txt
# Relative Pressure (p/p0)    Quantity Adsorbed
0.00330854	 2.90659
0.00351802	9.87821
0.00573069	16.8493
0.00593363	23.6031
0.00413338	30.3574
0.00434941	37.5468
0.00648353	41.9036
0.00471601	49.7472
0.00480111	52.5794
0.00290921	56.2836
0.00499095	58.8974
0.00505642	61.0761
0.0071578	64.3435
0.00722981	66.74
0.0132852	68.2635
0.0353399	68.9113
0.0533817	69.3423
0.0834558	70.2059
0.101491	70.419
0.121536	70.8495
0.137568	71.0632
0.161613	71.2748
0.181658	71.7053
0.199687	71.7006
0.255796	72.3395
0.301875	72.5453
0.355981	73.1848
0.404058	73.1722
0.452141	73.3775
0.502221	73.3644
0.55232	74.0049
0.606413	74.2086
0.654489	74.196
0.700556	73.9661
0.752652	74.3882
0.800728	74.3757
0.82076	74.3704
0.848805	74.3631
0.876869	75.0094
0.902917	75.2204
0.922943	74.9973
0.947001	75.6446
0.973042	75.6378
0.991123	77.376