File: data/nitrogen-adsorption-isotherms/ic502643m-si_page_26_IIc_ads.txt
# Relative Pressure (p/p0)    Quantity Adsorbed
0.00525935	 1.16316
-0.000665111	3.99695
0.00540992	6.17401
0.00545575	7.69906
0.00152792	10.3145
0.00361622	13.1462
0.00368823	15.5427
0.00777316	18.156
0.00380606	19.4642
0.00389771	22.5143
0.00397627	25.1286
0.00402864	26.8715
0.00612348	29.9211
0.00418575	32.1003
0.00423812	33.8432
0.00431668	36.4575
0.00642461	39.9428
0.00642461	39.9428
0.00645734	41.0321
0.00651626	42.9929
0.00656208	44.5179
0.00662755	46.6966
0.0126895	48.4379
0.0287477	49.523
0.0648379	50.6029
0.0828666	50.5982
0.0989052	51.0297
0.124986	52.3301
0.143021	52.5433
0.157044	52.5396
0.179105	53.4053
0.201153	53.8353
0.253269	54.911
0.303375	55.7693
0.35348	56.6277
0.405576	57.0498
0.453679	57.9087
0.503792	58.9849
0.553884	59.4075
0.603984	60.048
0.65208	60.689
0.69818	61.5485
0.750289	62.4063
0.804375	62.3921
0.804375	62.3921
0.82042	63.0415
0.854494	63.6862
0.878532	63.68
0.9046	64.5446
0.930648	64.7557
0.956702	65.1846
0.978757	65.8324
0.990802	66.7007