File: data/nitrogen-adsorption-isotherms/ic501849g-si_page_7_L-1_ads.txt
# Relative Pressure (p/p0)    Quantity Adsorbed
0.0106534	 55.4306
0.0329069	63.2222
0.0597755	68.5694
0.077759	70.4028
0.102508	72.3889
0.118266	73.4583
0.145303	74.6806
0.156571	75.1389
0.181364	76.0556
0.203919	76.5139
0.249022	77.5833
0.298658	78.1944
0.348294	78.8056
0.400194	79.2639
0.447573	79.875
0.501737	80.1806
0.551373	80.7917
0.598758	81.25
0.646137	81.8611
0.702558	82.1667
0.749944	82.625
0.79958	83.2361
0.819883	83.5417
0.846953	84.0
0.878543	84.3056
0.901097	84.7639
0.921388	85.375
0.948451	85.9861
0.959713	86.5972