File: data/nitrogen-adsorption-isotherms/ic5008457_page_5_1e_ads.txt
# Relative Pressure (p/p0)    Quantity Adsorbed
0	 2.90698
0.0	4.06977
0.0	6.39535
0.0	8.13953
-0.00222717	15.1163
-0.00222717	18.6047
0.00222717	25.5814
0.0	36.0465
0.0	45.9302
0.0	57.5581
-0.00222717	72.093
-0.00222717	88.9535
0.00222717	109.884
0.00890869	130.233
0.077951	141.279
0.153675	143.023
0.227171	144.767
0.302895	146.512
0.371938	148.256
0.432071	147.674
0.492205	148.837
0.561247	149.419
0.619154	151.163
0.670379	151.163
0.706013	152.326
0.759465	153.488
0.81069	155.233
0.857461	155.814
0.902004	157.558
0.930958	159.884
0.946548	164.535
0.962138	172.093
0.98441	179.651