File: data/nitrogen-adsorption-isotherms/ic5005374-si_page_15_438-MOF_des.txt
# Relative Pressure (p/p0)    Quantity Adsorbed
0.99615	 742.157
0.979648	729.902
0.943894	702.941
0.943894	702.941
0.957646	710.294
0.919142	683.333
0.905391	663.725
0.883388	644.118
0.864136	629.412
0.844884	614.706
0.809131	600
0.792629	590.196
0.762376	570.588
0.740374	558.333
0.721122	543.627
0.69912	531.373
0.677118	511.765
0.660616	504.412
0.638614	489.706
0.619362	477.451
0.594609	462.745
0.572607	452.941
0.545105	440.686
0.520352	433.333
0.4956	413.725
0.476348	389.216
0.468097	369.608
0.451595	367.157
0.432343	357.353
0.407591	350.0
0.380088	337.745
0.352585	327.941
0.319582	320.588
0.29758	313.235
0.264576	308.333
0.234323	298.529
0.20132	288.725
0.171067	278.922
0.138064	264.216
0.118812	256.863
0.0913091	244.608
0.0748075	237.255
0.0638064	229.902
0.0528053	220.098
0.0473047	215.196
0.0335534	205.392
0.0225523	193.137
0.0115512	166.176