File: data/nitrogen-adsorption-isotherms/ic501801f_page_5_1_des.txt
# Relative Pressure (p/p0)    Quantity Adsorbed
0.995445	 6.08598
0.977337	5.57715
0.949157	5.56031
0.949157	5.56031
0.931057	4.55348
0.923006	4.54867
0.898852	4.53423
0.884754	5.02382
0.862628	4.01458
0.846509	5.00096
0.828393	4.99014
0.812299	4.48251
0.784118	4.46567
0.772041	4.45845
0.757935	5.44604
0.733789	4.9336
0.733789	4.9336
0.717686	4.92398
0.701583	4.91435
0.675416	4.89872
0.661326	4.89029
0.647236	4.88187
0.631117	5.86826
0.602953	4.85541
0.590868	5.3462
0.576786	4.83977
0.55061	5.32214
0.534507	5.31252
0.520425	4.80609
0.49425	5.28846
0.482173	5.28124
0.452004	3.76919
0.452004	3.76919
0.463902	4.46797
0.440151	3.7621
0.412194	3.7454
0.412194	3.7454
0.42757	3.75458
0.389835	3.38619
0.375856	3.37784
0.340905	3.70279
0.340905	3.70279
0.353486	3.71031
0.317137	4.03443
0.304556	4.02691
0.282191	4.01354
0.262622	4.00185
0.248643	3.99349
0.22488	3.97929
0.213698	3.97261
0.191333	3.95925
0.18015	3.95256
0.153592	3.93669
0.13542	3.92583
0.121447	3.57164
0.101872	3.90578