File: data/nitrogen-adsorption-isotherms/ic501849g-si_page_7_L-2_des.txt
# Relative Pressure (p/p0)    Quantity Adsorbed
0.0475977	 60
0.0999615	60.6154
0.127296	60.6154
0.127296	60.6154
0.179688	60.6154
0.227524	60.6154
0.279923	60.4615
0.327766	60.3077
0.380172	60.0
0.428015	59.8462
0.478143	59.5385
0.528257	59.5385
0.576114	59.0769
0.626227	59.0769
0.678633	58.7692
0.731046	58.3077
0.778882	58.3077
0.83358	57.6923
0.879152	57.3846
0.929273	57.2308
0.979394	57.0769