File: data/nitrogen-adsorption-isotherms/ic502643m-si_page_26_IIa_des.txt
# Relative Pressure (p/p0)    Quantity Adsorbed
0.997165	 78.4638
0.981088	76.725
0.94702	76.2982
0.924972	75.8682
0.896927	75.8756
0.872883	75.664
0.854874	76.3223
0.844858	76.3249
0.800781	76.1186
0.758714	76.1296
0.708641	76.3605
0.662561	76.1547
0.632513	76.1626
0.562395	75.963
0.528347	76.1898
0.482267	75.984
0.428188	76.216
0.380091	75.575
0.328009	75.5886
0.281929	75.3828
0.231849	75.3959
0.155715	74.98