File: data/nitrogen-adsorption-isotherms/ic502921j-si_page_4_1_des.txt
# Relative Pressure (p/p0)    Quantity Adsorbed
0.996377	 347.418
0.971014	346.479
0.949275	344.601
0.923913	343.662
0.900362	343.662
0.853261	339.906
0.853261	339.906
0.873188	340.845
0.824275	338.967
0.800725	338.028
0.775362	337.089
0.75	337.089
0.724638	335.211
0.702899	335.211
0.677536	333.333
0.652174	332.394
0.623188	332.394
0.601449	331.455
0.576087	330.516
0.550725	329.577
0.528986	328.638
0.501812	325.822
0.478261	325.822
0.447464	324.883
0.425725	322.066
0.402174	321.127
0.375	320.188
0.347826	318.31
0.32971	318.31
0.297101	316.432
0.251812	312.676
0.251812	312.676
0.228261	309.859
0.202899	309.859
0.179348	308.92
0.152174	306.103
0.126812	302.347
0.103261	301.408
0.076087	297.653
0.0525362	293.897
0.0271739	287.324