File: data/nitrogen-adsorption-isotherms/ic5005374-si_page_15_438-MOF_ads.txt
# Relative Pressure (p/p0)    Quantity Adsorbed
0.00605061	 16.6667
0.00330033	28.9216
0.00330033	36.2745
0.00330033	46.0784
-0.00220022	50.9804
0.00605061	60.7843
0.00605061	68.1373
0.00605061	75.4902
0.00605061	80.3922
0.00330033	87.7451
0.00330033	97.549
0.00330033	102.451
0.00330033	122.059
0.00330033	131.863
0.00880088	144.118
0.0253025	173.529
0.0308031	185.784
0.0473047	200.49
0.0665567	202.941
0.0775578	225.0
0.0775578	225.0
0.09956	234.804
0.149065	251.961
0.179318	264.216
0.179318	264.216
0.234323	278.922
0.234323	278.922
0.29758	300.98
0.29758	300.98
0.319582	308.333
0.371837	315.686
0.393839	327.941
0.393839	327.941
0.410341	332.843
0.440594	340.196
0.462596	342.647
0.473597	354.902
0.4956	362.255
0.512101	372.059
0.528603	374.51
0.556106	384.314
0.569857	391.667
0.589109	396.569
0.589109	396.569
0.60286	401.471
0.635864	411.275
0.635864	411.275
0.652365	416.176
0.663366	423.529
0.671617	428.431
0.685369	435.784
0.721122	455.392
0.721122	455.392
0.745875	462.745
0.767877	479.902
0.789879	497.059
0.79813	504.412
0.811881	511.765
0.836634	533.824
0.844884	546.078
0.864136	565.686
0.864136	565.686
0.875138	575.49
0.886139	585.294
0.89714	597.549
0.913641	619.608
0.932893	636.765
0.935644	644.118
0.943894	656.373
0.952145	666.176
0.960396	680.882
0.968647	695.588
0.976898	710.294
0.270077	293.627