File: data/nitrogen-adsorption-isotherms/ic501849g-si_page_7_L-1_des.txt
# Relative Pressure (p/p0)    Quantity Adsorbed
0.982223	 88.125
0.932619	86.75
0.882976	86.2917
0.83107	85.9861
0.781408	85.9861
0.734011	85.8333
0.679834	85.8333
0.648225	85.9861
0.580512	85.8333
0.546664	85.5278
0.499266	85.375
0.451875	85.0694
0.397711	84.7639
0.350314	84.6111
0.298414	84.1528
0.251028	83.6944
0.199141	82.9306
0.14726	82.0139
0.10217	80.6389
0.0503762	77.5833