File: data/nitrogen-adsorption-isotherms/ic502921j-si_page_4_1_ads.txt
# Relative Pressure (p/p0)    Quantity Adsorbed
0.00181159	 17.8404
0.00181159	30.9859
-0.00181159	37.5587
0.0	46.0094
0.0	59.1549
0.0	73.2394
0.0	82.6291
0.0	92.0188
0.0	97.6526
0.00181159	137.089
0.0	174.648
0.0	189.671
0.00181159	198.122
0.0	203.756
0.00181159	222.535
0.00181159	234.742
0.00181159	238.498
0.00362319	242.254
0.00181159	247.887
0.00181159	253.521
0.00362319	266.667
0.00362319	272.3
0.00905797	275.117
0.00905797	275.117
0.0144928	277.934
0.0163043	280.751
0.0289855	286.385
0.0507246	292.019
0.0778986	295.775
0.0996377	298.592
0.123188	301.408
0.152174	304.225
0.175725	305.164
0.201087	307.981
0.228261	307.981
0.300725	315.493
0.349638	317.371
0.324275	316.432
0.376812	320.188
0.398551	319.249
0.425725	320.188
0.451087	322.066
0.480072	323.944
0.501812	324.883
0.527174	326.761
0.552536	328.638
0.577899	327.7
0.601449	329.577
0.626812	330.516
0.652174	332.394
0.675725	332.394
0.699275	334.272
0.775362	336.15
0.827899	338.028
0.849638	338.967
0.896739	341.784
0.929348	342.723
0.949275	342.723
0.978261	344.601
0.994565	345.54