File: data/nitrogen-adsorption-isotherms/ic502643m-si_page_26_IIc_des.txt
# Relative Pressure (p/p0)    Quantity Adsorbed
0.998854	 68.0058
0.978783	66.7039
0.918655	65.6302
0.918655	65.6302
0.950712	65.8397
0.8966	64.9824
0.860536	64.774
0.860536	64.774
0.842494	64.343
0.81445	64.3503
0.77436	63.4893
0.72627	63.0662
0.676177	62.6435
0.628088	62.2204
0.577982	61.362
0.525873	60.5042
0.477789	60.2989
0.42769	59.6584
0.375588	59.0184
0.329495	58.3769
0.277385	57.519
0.227293	57.0964
0.161155	56.0244