File: data/nitrogen-adsorption-isotherms/ic501801f_page_6_2_ads.txt
# Relative Pressure (p/p0)    Quantity Adsorbed
-0.00169851	 19.4501
0.0	39.5668
0.0	60.2985
0.00169851	80.4153
0.0	100.542
0.0	120.055
0.0	140.786
0.00339703	160.288
0.0186837	176.095
0.0288747	181.552
0.0543524	186.962
0.0713376	189.959
0.0900212	192.341
0.110403	193.499
0.135881	195.86
0.151168	195.813
0.174947	198.79
0.191932	198.738
0.212314	199.285
0.232696	199.833
0.253079	201.6
0.273461	201.538
0.290446	202.706
0.310828	203.253
0.332909	203.796
0.354989	204.948
0.371975	205.506
0.395754	205.433
0.412739	205.991
0.433121	206.539
0.453503	207.087
0.473885	207.024
0.485775	207.598
0.511253	208.13
0.531635	208.678
0.552017	208.616
0.574098	208.548
0.592781	208.491
0.613163	210.258
0.635244	209.581
0.652229	209.53
0.672611	210.687
0.691295	210.63
0.706582	211.193
0.735456	210.495
0.75414	211.048
0.777919	210.366
0.794904	212.143