File: data/nitrogen-adsorption-isotherms/ic7014034_page_3_1a_des.txt
# Relative Pressure (p/p0)    Quantity Adsorbed
0.926254	 17.45
0.899213	15.5307
0.874631	14.3289
0.854966	13.6064
0.840216	13.1243
0.825467	12.8811
0.810718	12.6379
0.798427	12.6344
0.788594	12.1537
0.773845	11.9105
0.759095	11.1894
0.73943	11.1838
0.72468	10.9406
0.709931	10.4585
0.682891	9.97283
0.660767	9.96648
0.648476	9.72401
0.626352	9.47872
0.604228	9.23343
0.587021	9.22849
0.55998	8.98179
0.545231	8.49966
0.523107	8.25437
0.5059	8.24944
0.478859	8.00273
0.456735	7.27955
0.405113	7.02579
0.36824	6.53732
0.333825	7.00535
0.316618	7.00042
0.274828	6.74949
0.245329	6.50208
0.215831	6.49362
0.1765	6.48234
0.164208	6.47882
0.132252	6.46966
0.0855457	6.93416
0.06588	6.21168
0.0486726	6.44569