File: data/nitrogen-adsorption-isotherms/ic7014034_page_3_1a_ads.txt
# Relative Pressure (p/p0)    Quantity Adsorbed
-0.000491642	 -0.497915
0.0216323	0.94212
0.0339233	0.945644
0.053589	0.951283
0.0707965	1.19517
0.0904621	1.6787
0.115044	1.68575
0.144543	1.69421
0.16175	1.69914
0.20354	2.18902
0.20354	2.18902
0.181416	2.18268
0.235497	2.43714
0.279744	2.68877
0.370698	3.67065
0.370698	3.67065
0.319076	3.17795
0.444444	4.88653
0.444444	4.88653
0.405113	3.68051
0.486234	5.13747
0.528024	5.86629
0.55998	5.87546
0.596853	6.60288
0.646018	7.33382
0.660767	7.33805
0.685349	8.06194
0.707473	8.30724
0.727139	9.26867
0.746804	9.27431
0.761554	9.27854
0.773845	9.52101
0.788594	10.2421
0.803343	10.4853
0.815634	10.7277
0.830383	11.2099
0.850049	12.1713
0.86234	12.4138
0.872173	12.4166
0.886922	13.6156
0.901672	14.0977
0.916421	15.0577
0.928712	15.7781
0.945919	17.4557