File: data/nitrogen-adsorption-isotherms/ja101440z-si_page_9_1_des.txt
# Relative Pressure (p/p0)    Quantity Adsorbed
0.990836	 300.48
0.978308	293.542
0.95146	289.731
0.919244	285.159
0.892397	283.671
0.86197	280.642
0.827964	278.396
0.802907	276.129
0.77248	273.875
0.740263	270.851
0.713416	270.136
0.67941	267.89
0.650773	265.632
0.620347	264.151
0.58992	261.897
0.561283	259.639
0.529066	258.162
0.504009	255.896
0.473582	253.642
0.441366	252.939
0.412729	249.907
0.382302	248.427
0.355455	245.39
0.323239	244.688
0.289233	242.442
0.258806	240.961
0.231959	239.473
0.203322	234.893
0.187214	234.929
0.176475	234.178
0.156787	232.674
0.140679	231.162
0.12457	229.65
0.0977234	227.387
0.0851947	225.093
0.0583477	223.605
0.0440292	221.315
0.0332904	217.468
0.0207617	213.626
0.0082331	202.043
0.00465349	186.57