File: data/nitrogen-adsorption-isotherms/ja109659k-si_page_12_NENU-11_des.txt
# Relative Pressure (p/p0)    Quantity Adsorbed
0.979036	 198.824
0.93501	198.799
0.87631	197.595
0.825996	198.15
0.777778	198.122
0.719078	198.672
0.675052	197.477
0.624738	196.278
0.568134	194.49
0.524109	192.125
0.469602	190.339
0.42348	189.727
0.366876	187.94
0.314465	186.74
0.220126	186.1
0.159329	182.555
0.115304	178.436
0.100629	177.843
0.0880503	176.666
0.0754717	176.074
0.0607966	174.311
0.048218	171.964
0.0440252	170.207
0.0251572	166.688
0.0188679	163.175
0.0125786	159.663
0.00209644	143.282
0.00209644	122.23