File: data/nitrogen-adsorption-isotherms/ja101440z-si_page_9_1_ads.txt
# Relative Pressure (p/p0)    Quantity Adsorbed
0.994416	 302.021
0.95504	291.271
0.919244	286.707
0.883448	283.69
0.849442	282.218
0.810066	279.984
0.77606	276.963
0.740263	274.721
0.702678	272.483
0.668671	269.462
0.629296	268.776
0.595289	267.303
0.557703	265.065
0.523697	262.045
0.486111	261.354
0.452105	258.334
0.416309	256.092
0.382302	254.619
0.342927	252.385
0.30892	250.138
0.269545	247.904
0.237328	245.654
0.199742	241.867
0.165736	240.395
0.12815	238.156
0.092354	236.688
0.0565578	232.898