File: data/nitrogen-adsorption-isotherms/ja109659k-si_page_12_NENU-11_ads.txt
# Relative Pressure (p/p0)    Quantity Adsorbed
0.00209644	 3.51613
0.00209644	8.77929
0.0	21.0588
0.00209644	39.1886
0.00209644	54.9781
0.00209644	64.3348
0.00209644	81.8787
0.00209644	93.5746
0.00209644	107.025
0.00209644	125.154
0.00209644	146.791
0.00209644	153.809
0.0	156.731
0.0	160.825
0.0	165.503
0.00628931	167.261
0.0104822	170.188
0.0167715	171.361
0.0356394	173.711
0.0440252	174.886
0.0545073	176.646
0.0607966	177.819
0.0754717	178.413
0.081761	180.171
0.0901468	180.761
0.100629	180.767
0.127883	183.122
0.140461	183.714
0.163522	184.312
0.180294	185.492
0.201258	185.504
0.238994	187.28
0.264151	187.295
0.293501	187.312
0.324948	189.085
0.366876	189.11
0.406709	190.302
0.454927	190.915
0.509434	192.117
0.555556	193.313
0.616352	192.764
0.672956	195.137
0.733753	195.757
0.796646	196.963
0.859539	197.585
0.916143	197.618
0.991614	200.586