File: data/nitrogen-adsorption-isotherms/ja110042b-si_page_13_1_ads.txt
# Relative Pressure (p/p0)    Quantity Adsorbed
-0.000341865	 21.7391
-0.00389201	255.435
-0.00156469	274.457
-0.00660063	315.217
-0.00660063	315.217
-0.00666637	328.804
-0.00435221	350.543
-0.00453629	388.587
-0.00458888	399.457
-0.00466778	415.761
-0.00474667	432.065
-0.00486501	456.522
-0.00253769	475.543
-0.000289271	510.87
-0.000433906	540.761
-0.0029979	570.652
-0.00311623	595.109
-0.000854663	627.717
0.00628506	652.174
0.0253506	711.957
0.0420757	755.435
0.0734485	771.739
0.100009	782.609
0.119337	788.043
0.170104	796.196
0.18704	796.196
0.203962	798.913
0.245065	804.348
0.298291	804.348
0.353896	812.5
0.395025	812.5
0.443413	812.5
0.4918	812.5
0.54258	817.935
0.595792	820.652
0.644193	817.935
0.694986	820.652
0.743386	817.935
0.794206	815.217
0.818386	817.935
0.847418	817.935
0.876438	820.652
0.893373	820.652
0.924825	820.652
0.994999	817.935
0.968386	817.935