File: data/nitrogen-adsorption-isotherms/ja110042b-si_page_13_PCN-61_des.txt
# Relative Pressure (p/p0)    Quantity Adsorbed
0.980167	 883.152
0.965651	883.152
0.953555	883.152
0.936619	883.152
0.910006	883.152
0.880974	883.152
0.8592	883.152
0.839845	883.152
0.808393	883.152
0.769684	883.152
0.72131	880.435
0.672923	880.435
0.61971	877.717
0.573742	877.717
0.520516	877.717
0.469723	875.0
0.41893	872.283
0.370543	872.283
0.322169	869.565
0.271388	864.13
0.223028	858.696
0.145648	850.543
0.0419048	790.761
0.00386571	652.174