File: data/nitrogen-adsorption-isotherms/ja110042b-si_page_13_PCN-61_ads.txt
# Relative Pressure (p/p0)    Quantity Adsorbed
-0.000368163	 27.1739
-0.00527262	40.7609
-0.00777086	57.0652
-0.000683731	92.3913
-0.000683731	92.3913
-0.000762623	108.696
-0.000841515	125.0
-0.000907258	138.587
-0.00098615	154.891
-0.00106504	171.196
-0.00114393	187.5
-0.00123597	206.522
-0.00128857	217.391
-0.00619302	230.978
-0.00625877	244.565
-0.00632451	258.152
-0.00157784	277.174
-0.00165673	293.478
-0.00172248	307.065
-0.00180137	323.37
-0.00188026	339.674
-0.001946	353.261
-0.00201175	366.848
-0.00207749	380.435
0.000249825	399.457
0.000184081	413.043
9.20407e-05	432.065
2.62973e-05	445.652
-0.000131487	478.261
-0.000184081	489.13
-0.000289271	510.87
-0.000341865	521.739
-0.000420757	538.043
-0.000473352	548.913
-0.000512798	557.065
0.00424702	573.37
0.00176192	586.957
0.00168303	603.261
0.00165673	608.696
0.00159099	622.283
0.0039183	641.304
0.00382626	660.326
0.0227998	739.13
0.044311	793.478
0.0804173	831.522
0.104571	839.674
0.119061	845.109
0.167409	853.261
0.179506	853.261
0.20128	853.261
0.244789	861.413
0.30284	864.13
0.353607	872.283
0.39233	869.565
0.443136	869.565
0.491484	877.717
0.54229	877.717
0.595503	880.435
0.641471	880.435
0.692277	880.435
0.74549	883.152
0.793877	883.152
0.815651	883.152
0.844684	883.152
0.871296	883.152
0.89549	883.152
0.924522	883.152
0.99467	885.87