File: data/nitrogen-adsorption-isotherms/ja110042b-si_page_13_1_des.txt
# Relative Pressure (p/p0)    Quantity Adsorbed
0.978064	 817.935
0.963534	820.652
0.949018	820.652
0.934502	820.652
0.910309	820.652
0.881289	817.935
0.859515	817.935
0.832902	817.935
0.806289	817.935
0.769999	817.935
0.724031	817.935
0.673225	817.935
0.622418	817.935
0.571625	815.217
0.520806	817.935
0.470012	815.217
0.421625	815.217
0.368426	809.783
0.320039	809.783
0.269258	804.348
0.223304	801.63
0.148343	793.478
0.0469144	755.435