File: data/nitrogen-adsorption-isotherms/ja302110d-si_page_11_1_ads.txt
# Relative Pressure (p/p0)    Quantity Adsorbed
0.997214	 57.3749
0.952646	51.2026
0.902507	48.3966
0.849582	32.4032
0.799443	30.3732
0.752089	28.0823
0.70195	25.7936
0.651811	23.7636
0.604457	21.7313
0.551532	19.9621
0.501393	17.4148
0.448468	15.1282
0.398329	13.3568
0.348189	11.3267
0.295265	9.81606
0.247911	7.52521
0.200557	5.75161
0.147632	4.24095
0.100279	2.72596
0.0752089	2.22817
0.0557103	1.98468
0.0139276	1.75848
0.00278552	0.732639