File: data/nitrogen-adsorption-isotherms/ja302110d-si_page_11_1_des.txt
# Relative Pressure (p/p0)    Quantity Adsorbed
0.94429	 51.4677
0.896936	48.401
0.849582	46.1101
0.802228	42.7848
0.746518	39.7246
0.696379	36.66
0.64624	33.8541
0.5961	30.7895
0.545961	27.725
0.495822	24.9191
0.448468	21.3351
0.395543	18.5314
0.348189	14.9474
0.29805	11.8829
0.245125	9.0791
0.197772	6.27101
0.142061	4.24527
0.0947075	2.73029
0.0394615	1.60936
0.0278552	1.61836
0.0116063	1.19993
-0.00464253	0.134953