File: data/nitrogen-adsorption-isotherms/ja406030p-si_page_18_tp-PMBB-1-lon-e-Bu_des.txt
# Relative Pressure (p/p0)    Quantity Adsorbed
0.947748	 118.357
0.936152	121.046
0.914434	119.701
0.894159	119.701
0.875328	121.046
0.855053	121.046
0.834773	122.39
0.818842	122.39
0.798568	122.39
0.77249	125.079
0.755111	125.079
0.736285	125.079
0.713108	126.423
0.694282	126.423
0.678351	126.423
0.678351	126.423
0.656618	129.111
0.633452	127.767
0.61027	130.456