File: data/nitrogen-adsorption-isotherms/ja406030p-si_page_18_tp-PMBB-1-lon-e-H_ads.txt
# Relative Pressure (p/p0)    Quantity Adsorbed
-0.000509906	 33.6689
0.000786921	73.9966
-0.000969094	155.996
-0.00267969	225.898
-0.00274529	243.373
-0.00136268	260.849
-0.00143333	279.668
0.00285074	295.799
0.00279524	310.586
0.00564119	324.029
0.0099404	336.127
0.0142547	344.193
0.0214756	349.57
0.0344842	356.291
0.0561872	361.668
0.0648764	361.668
0.0865844	365.701
0.109741	369.734
0.13	373.767
0.169102	373.767
0.169102	373.767
0.150275	373.767
0.187913	377.799
0.20674	377.799
0.228463	377.799
0.248733	379.144
0.270446	381.832
0.282032	381.832
0.305203	381.832
0.326931	380.488
0.348649	381.832
0.368914	384.521
0.390647	381.832
0.409474	381.832
0.426842	384.521
0.450019	383.176
0.467392	384.521
0.48912	383.176
0.509395	383.176
0.548502	381.832
0.548502	381.832
0.526774	383.176
0.567324	383.176
0.59048	387.209
0.607879	381.832
0.628143	384.521
0.648423	383.176
0.66725	383.176
0.690426	381.832
0.706357	381.832
0.725178	383.176
0.746896	384.521
0.765733	381.832
0.786003	383.176
0.80483	383.176
0.823666	380.488
0.842488	381.832
0.862763	381.832
0.887393	379.144
0.903318	380.488
0.925036	381.832