File: data/nitrogen-adsorption-isotherms/ja406030p-si_page_18_tp-PMBB-1-lon-e-NO2_des.txt
# Relative Pressure (p/p0)    Quantity Adsorbed
0.951977	 149.275
0.93315	149.275
0.915766	150.619
0.891142	151.964
0.870867	151.964
0.852035	153.308
0.831755	154.652
0.810032	154.652
0.79554	157.341
0.773817	157.341
0.75499	157.341
0.734715	157.341
0.711534	160.029
0.691259	160.029
0.670984	160.029
0.647813	160.029
0.636222	161.374
0.615942	162.718
0.594214	164.062
0.571038	165.406
0.549314	165.406
0.530478	168.095
0.511656	166.751
0.495711	170.783
0.475441	169.439
0.466751	169.439
0.450811	172.128
0.431984	172.128
0.410261	172.128
0.389991	170.783
0.369717	170.783
0.339299	172.128
0.316133	170.783
0.292951	173.472
0.268327	174.816
0.259638	174.816
0.232122	174.816
0.210399	174.816
0.194468	174.816
0.172745	174.816
0.151017	176.16
0.127861	172.128
0.107571	176.16
0.0858527	174.816
0.0699224	174.816
0.0496475	174.816