File: data/nitrogen-adsorption-isotherms/ja406844r-si_page_12_PCN-225(Zn)_des.txt
# Relative Pressure (p/p0)    Quantity Adsorbed
0.948589	 509.688
0.930942	509.688
0.903491	509.688
0.8936875	509.688
0.866237	509.688
0.848589	509.688
0.827027	508.125
0.807419	508.125
0.78585	508.125
0.770158	509.688
0.746635	508.125
0.746635	508.125
0.727027	508.125
0.727027	508.125
0.70938	508.125
0.687805	509.688
0.666243	508.125
0.646641	506.5625
0.625072	506.5625
0.603498	508.125
0.587811	508.125
0.56821	506.5625
0.548602	506.5625
0.527033	506.5625
0.507425	506.5625
0.489778	506.5625
0.46821	506.5625
0.446647	505
0.425085	503.438
0.409398	503.438
0.385869	503.438
0.362346	501.875
0.344699	501.875
0.327051	501.875
0.303528	500.3125
0.28392	500.3125
0.266273	500.3125
0.246665	500.3125
0.22707	497.188
0.205501	497.188
0.1859	495.625
0.166298	494.0625
0.148657	492.5
0.1271	489.375
0.10946	487.8125
0.0879093	483.125
0.0683137	480
0.0487243	475.3125