File: data/nitrogen-adsorption-isotherms/ja406030p-si_page_18_tp-PMBB-1-lon-e-fdc_ads.txt
# Relative Pressure (p/p0)    Quantity Adsorbed
-0.0021761	 -0.851723
-0.000163346	18.5056
-0.0022851	28.1843
-0.00235049	45.6059
-0.000345002	66.899
-0.00250308	86.2563
-0.00256848	103.678
0.00154423	119.164
-0.000613854	138.521
-0.000671984	154.007
-0.00280827	167.557
-0.00081731	192.722
-0.000882706	210.143
-0.00304805	231.436
-0.00314978	258.537
-0.00314978	258.537
-0.00113703	277.894
-0.00119516	293.38
0.00289575	314.673
-0.00134775	334.03
0.00275769	351.452
0.0027141	363.066
0.00473412	380.488
0.00675414	397.909
0.0108596	415.331
0.0191504	428.881
0.0232849	438.56
0.0357611	448.238
0.0420028	452.11
0.0690987	455.981
0.0920238	459.853
0.110785	461.789
0.127461	463.724
0.154557	467.596
0.173319	469.532
0.187917	469.532
0.215005	475.339
0.229603	475.339
0.252557	471.467
0.269234	473.403
0.296337	475.339
0.331774	479.21
0.352621	481.146
0.371412	475.339
0.385981	483.082
0.415184	481.146
0.433953	481.146
0.454821	477.274
0.469419	477.274
0.492344	481.146
0.504857	481.146
0.529875	483.082
0.54448	481.146
0.567419	481.146
0.586188	481.146
0.6571	479.21
0.673783	479.21
0.698793	483.082
0.709221	483.082
0.744687	479.21
0.759285	479.21
0.786388	481.146
0.800979	483.082
0.828097	481.146
0.871905	477.274
0.840624	477.274
0.90945	475.339
0.924048	475.339