File: data/nitrogen-adsorption-isotherms/ja406844r-si_page_12_PCN-225_des.txt
# Relative Pressure (p/p0)    Quantity Adsorbed
0.94669	 494.0625
0.927082	494.0625
0.903547	495.625
0.887866	494.0625
0.868259	494.0625
0.848657	492.5
0.829055	490.938
0.803571	489.375
0.785924	489.375
0.768277	489.375
0.748669	489.375
0.729061	489.375
0.705532	489.375
0.687885	489.375
0.670238	489.375
0.644748	489.375
0.629061	489.375
0.605544	486.25
0.587897	486.25
0.568289	486.25
0.546721	486.25
0.527113	486.25
0.505544	486.25
0.487903	484.688
0.470256	484.688
0.446727	484.688
0.42908	484.688
0.405562	481.5625
0.385949	483.125
0.364392	480
0.342824	480
0.342824	480
0.323216	480
0.307523	481.5625
0.307523	481.5625
0.28794	475.3125
0.266359	478.438
0.246757	476.875
0.22715	476.875
0.207548	475.3125
0.18794	475.3125
0.168344	472.188
0.148737	472.188
0.12718	469.0625
0.107578	467.5
0.0899436	464.375
0.0683934	459.688
0.0468431	455