File: data/nitrogen-adsorption-isotherms/ja406030p-si_page_18_tp-PMBB-1-lon-e-Br_des.txt
# Relative Pressure (p/p0)    Quantity Adsorbed
0.950422	 177.505
0.925803	177.505
0.915665	177.505
0.892489	178.849
0.870766	178.849
0.847595	178.849
0.828768	178.849
0.81139	178.849
0.792568	177.505
0.770845	177.505
0.75057	177.505
0.728847	177.505
0.711468	177.505
0.688297	177.505
0.672367	177.505
0.650644	177.505
0.633265	177.505
0.61299	177.505
0.591267	177.505
0.57244	177.505
0.549269	177.505
0.530447	176.16
0.507271	177.505
0.491346	176.16
0.468174	176.16
0.4479	176.16
0.430521	176.16
0.408798	176.16
0.389971	176.16
0.369701	174.816
0.350875	174.816
0.3306	174.816
0.307439	172.128
0.29006	172.128
0.271238	170.783
0.249515	170.783
0.227787	172.128
0.210414	170.783
0.190139	170.783
0.171312	170.783
0.146703	168.095
0.129324	168.095
0.109054	166.751
0.0873413	164.062
0.0685146	164.062
0.049698	161.374