File: data/nitrogen-adsorption-isotherms/ja406030p-si_page_18_tp-PMBB-1-lon-e-NO2_ads.txt
# Relative Pressure (p/p0)    Quantity Adsorbed
-0.000509906	 33.6689
-0.000822759	117.013
-0.000893404	135.833
0.0207288	162.718
0.0207288	162.718
0.0337425	168.095
0.0134878	162.718
0.00914817	161.374
0.0482195	169.439
0.0931038	172.128
0.113384	170.783
0.130752	173.472
0.130752	173.472
0.17275	173.472
0.187242	170.783
0.223458	168.095
0.211862	170.783
0.248082	166.751
0.285736	166.751
0.319029	170.783
0.319029	170.783
0.346545	170.783
0.371165	170.783
0.390007	166.751
0.405927	169.439
0.452279	166.751
0.452279	166.751
0.429103	168.095
0.487036	166.751
0.487036	166.751
0.468215	165.406
0.505873	164.062
0.547871	164.062
0.547871	164.062
0.526143	165.406
0.566703	162.718
0.586978	162.718
0.608711	160.029
0.626085	161.374
0.659403	158.685
0.659403	158.685
0.685461	161.374
0.685461	161.374
0.708648	157.341
0.724578	157.341
0.744858	155.996
0.766576	157.341
0.785413	154.652
0.802796	153.308
0.82017	154.652
0.844799	151.964
0.867976	150.619
0.867976	150.619
0.883901	151.964
0.905629	150.619
0.921559	150.619