File: data/nitrogen-adsorption-isotherms/ja406030p-si_page_18_tp-PMBB-1-lon-e-Br_ads.txt
# Relative Pressure (p/p0)    Quantity Adsorbed
-0.00195307	 32.3246
-0.000706701	86.095
-0.00511692	103.57
0.000539666	139.865
0.0135483	146.587
0.0236656	151.964
0.0381376	154.652
0.0714362	157.341
0.0714362	157.341
0.0540527	158.685
0.0902478	161.374
0.107626	161.374
0.127891	164.062
0.148166	164.062
0.169889	164.062
0.190154	166.751
0.206089	165.406
0.226364	165.406
0.248072	169.439
0.271248	168.095
0.292972	168.095
0.308897	169.439
0.330615	170.783
0.352338	170.783
0.368268	170.783
0.39144	170.783
0.408818	170.783
0.430551	168.095
0.446477	169.439
0.471091	170.783
0.489918	170.783
0.507296	170.783
0.529014	172.128
0.553634	172.128
0.572461	172.128
0.591287	172.128
0.614448	174.816
0.631837	172.128
0.65356	172.128
0.670934	173.472
0.688307	174.816
0.71003	174.816
0.731758	173.472
0.747694	172.128
0.767958	174.816
0.789687	173.472
0.809961	173.472
0.83168	174.816
0.846157	176.16
0.872234	173.472
0.892509	173.472
0.909873	177.505
0.93594	177.505