File: data/nitrogen-adsorption-isotherms/ja4015666_page_3_p11-16-1_ads.txt
# Relative Pressure (p/p0)    Quantity Adsorbed
0.929961	 263.833
0.90296	263.006
0.889463	262.164
0.872107	261.327
0.848959	261.351
0.825811	261.374
0.80652	261.394
0.78723	261.414
0.771798	261.43
0.746721	261.456
0.723572	261.479
0.704282	261.499
0.68885	261.515
0.66956	261.535
0.648335	262.412
0.625186	262.436
0.609754	262.451
0.588546	260.763
0.567321	261.64
0.54996	261.658
0.53067	261.677
0.503663	261.705
0.488231	261.721
0.488231	261.721
0.468941	261.741
0.445793	261.764
0.430355	262.636
0.405283	261.806
0.385993	261.826
0.366703	261.846
0.35127	261.861
0.328128	261.03
0.308838	261.05
0.287618	261.071
0.272192	260.232
0.247114	260.258
0.229753	260.276
0.210474	258.585
0.19119	257.749
0.168047	256.918
0.152615	256.933
0.131395	256.955
0.114046	255.262
0.094761	254.427
0.073553	252.738
0.050416	251.051
0.0388532	249.352
0.031154	246.794
0.0215315	243.383
0.00998002	239.973
0.00423254	233.992
0.00435134	216.03
0.000612084	198.072
0.000747851	177.544
0.000855333	161.292
0.00291447	141.618
0.00305024	121.09
0.00125132	101.419
0.00138709	80.8912
0.00152286	60.3632
0.00165297	40.6905
0.00178308	21.0178