File: data/nitrogen-adsorption-isotherms/ja4015666_page_3_p11-Cu_ads.txt
# Relative Pressure (p/p0)    Quantity Adsorbed
0.931375	 341.667
0.910167	339.978
0.883167	339.15
0.86774	338.311
0.846527	337.477
0.829165	337.495
0.806023	336.664
0.786738	335.828
0.769377	335.846
0.752016	335.864
0.726933	336.745
0.705725	335.056
0.690292	335.072
0.667144	335.095
0.645925	335.117
0.628564	335.135
0.588054	335.177
0.588054	335.177
0.566835	335.198
0.549485	333.506
0.526337	333.529
0.508981	332.692
0.489691	332.712
0.470406	331.876
0.451116	331.896
0.427968	331.92
0.412535	331.935
0.387464	331.106
0.348889	330.29
0.348889	330.29
0.32961	328.599
0.31032	328.619
0.287171	328.643
0.269821	326.95
0.25246	326.968
0.231252	325.279
0.206175	325.305
0.194601	325.317
0.171469	322.774
0.150267	320.23
0.129053	319.396
0.109769	318.561
0.0905013	315.159
0.071228	312.613
0.0461733	309.218
0.0346161	306.664
0.028846	304.103
0.0230759	301.543
0.011547	294.713
0.00777946	281.031
0.0115753	290.436
0.00784734	270.767
0.000238724	254.524
0.000334892	239.983
0.00432305	220.307
0.00251282	202.347
0.000708252	183.531
-0.00110763	166.426
-0.000994495	149.32
0.00105333	131.356
-0.000745588	111.685
-0.00447919	92.8718
0.001438	73.1932
-0.00230125	55.2351
-0.000247775	36.4158
-0.00397006	15.8918