File: data/nitrogen-adsorption-isotherms/ja406030p-si_page_18_tp-PMBB-1-lon-e-Bu_ads.txt
# Relative Pressure (p/p0)    Quantity Adsorbed
-0.000509906	 33.6689
-0.0020994	71.3081
-0.00212463	78.0294
0.00214935	96.8491
0.00647883	100.882
0.0108083	104.915
0.0151378	108.947
0.0209205	111.636
0.0252551	114.324
0.0339443	114.324
0.0411803	115.669
0.0469731	115.669
0.0701344	118.357
0.0875028	121.046
0.110674	121.046
0.128042	123.734
0.148317	123.734
0.17004	123.734
0.188867	123.734
0.209137	125.079
0.229412	125.079
0.249687	125.079
0.268514	125.079
0.28734	125.079
0.309063	125.079
0.330771	129.111
0.352505	126.423
0.369888	125.079
0.369888	125.079
0.390158	126.423
0.411876	127.767
0.429265	125.079
0.448086	126.423
0.469809	126.423
0.490084	126.423
0.510354	127.767
0.530634	126.423
0.552362	125.079
0.568292	125.079
0.590016	125.079
0.610291	125.079
0.623329	123.734
0.647939	126.423
0.663869	126.423
0.689947	123.734
0.702981	123.734
0.726157	122.39
0.746437	121.046
0.763811	122.39
0.785534	122.39
0.80871	121.046
0.823182	123.734
0.84491	122.39
0.86519	121.046
0.884017	121.046
0.905745	119.701
0.92602	119.701
0.944857	117.013