File: data/nitrogen-adsorption-isotherms/ja406844r-si_page_12_PCN-225_ads.txt
# Relative Pressure (p/p0)    Quantity Adsorbed
-0.00243382	 20.625
-0.0064473	44.0625
-0.00264216	73.75
-0.00271569	92.5
-0.00271569	92.5
-0.00277696	108.125
-0.002875	133.125
-0.00293015	147.188
-0.00497672	169.0625
-0.00503799	184.688
-0.00122059	211.25
-0.00130025	231.563
-0.00134314	242.5
-0.00139216	255.0
0.000488971	275.313
0.000397059	298.75
0.000335784	314.375
0.000329657	315.938
0.000286765	326.875
-0.00371446	347.188
4.16667e-05	389.375
4.16667e-05	389.375
0.00188603	419.0625
0.00188603	419.0625
0.00575858	431.5625
0.0135833	436.25
0.0272904	440.938
0.0331605	444.0625
0.040973	451.875
0.0586201	451.875
0.0821311	456.5625
0.101727	459.688
0.127192	465.938
0.17033	465.938
0.17033	465.938
0.205599	472.188
0.205599	472.188
0.229129	472.188
0.264411	475.3125
0.264411	475.3125
0.293822	475.3125
0.325183	478.438
0.325183	478.438
0.348712	478.438
0.364392	480
0.387915	481.5625
0.411445	481.5625
0.421249	481.5625
0.444778	481.5625
0.460464	481.5625
0.480066	483.125
0.507523	481.5625
0.525164	483.125
0.548681	486.25
0.57025	486.25
0.583975	486.25
0.60946	487.8125
0.631028	487.8125
0.654558	487.8125
0.68593	487.8125
0.705532	489.375
0.744754	487.8125
0.725134	490.938
0.768277	489.375
0.809453	489.375
0.809453	489.375
0.782002	489.375
0.827088	492.5
0.84082	490.938
0.864349	490.938
0.883957	490.938
0.899643	490.938
0.923167	492.5