File: data/nitrogen-adsorption-isotherms/ja4015666_page_3_p11-16-1_des.txt
# Relative Pressure (p/p0)    Quantity Adsorbed
0.949251	 263.814
0.929944	266.399
0.891369	265.584
0.891369	265.584
0.916447	265.558
0.866298	264.754
0.85086	265.625
0.827717	264.794
0.808427	264.814
0.789137	264.833
0.765988	264.857
0.750556	264.873
0.731266	264.893
0.710047	264.915
0.688822	265.792
0.67146	265.809
0.648318	264.978
0.629027	264.998
0.609737	265.017
0.590447	265.037
0.567299	265.061
0.551866	265.077
0.528718	265.101
0.507499	265.122
0.488209	265.142
0.468918	265.162
0.451557	265.18
0.42648	265.206
0.40719	265.225
0.389828	265.243
0.366686	264.412
0.345472	263.578
0.33004	263.594
0.312679	263.612
0.293388	263.632
0.268311	263.657
0.249021	263.677
0.227801	263.699
0.210446	262.861
0.193085	262.879
0.169942	262.048
0.150652	262.067
0.129438	261.234
0.108225	260.4
0.0870166	258.711
0.067732	257.876
0.0503877	255.328