File: data/nitrogen-adsorption-isotherms/ja4015666_page_3_p11-Cu_des.txt
# Relative Pressure (p/p0)    Quantity Adsorbed
0.95066	 342.502
0.931347	345.944
0.912057	345.963
0.888908	345.987
0.869624	345.152
0.84841	344.318
0.827191	344.34
0.807912	342.649
0.790556	341.811
0.765479	341.837
0.748118	341.855
0.728833	341.019
0.705691	340.188
0.690258	340.204
0.669045	339.37
0.64782	340.247
0.609251	338.576
0.609251	338.576
0.626601	340.269
0.589966	337.741
0.570676	337.76
0.547522	338.64
0.508953	336.968
0.508953	336.968
0.526314	336.951
0.485804	336.992
0.466514	337.012
0.447235	335.321
0.426022	334.488
0.389376	333.67
0.404797	335.365
0.364304	332.84
0.346943	332.858
0.329587	332.021
0.30645	330.334
0.285225	331.211
0.265941	330.375
0.229301	328.702
0.24858	330.393
0.24858	330.393
0.204223	328.728
0.184944	327.037
0.165654	327.057
0.14831	324.509
0.127096	323.675
0.0904673	320.291
0.0904673	320.291
0.107817	321.984
0.065407	317.751
0.0480853	311.782