File: data/nitrogen-adsorption-isotherms/ja406030p-si_page_18_tp-PMBB-1-lon-e-fdc_des.txt
# Relative Pressure (p/p0)    Quantity Adsorbed
0.946987	 475.339
0.93656	475.339
0.911528	477.274
0.888472	477.274
0.869646	477.274
0.847923	477.274
0.830534	479.963
0.810259	479.963
0.792881	479.963
0.768261	479.963
0.752331	479.963
0.72916	479.963
0.716126	479.963
0.690053	481.307
0.672674	481.307
0.646607	481.307
0.635021	481.307
0.610402	481.307
0.594471	481.307
0.568404	481.307
0.555365	482.652
0.532188	483.996
0.514815	482.652
0.493092	482.652
0.467029	481.307
0.449645	482.652
0.427922	482.652
0.406204	481.307
0.385924	482.652
0.365649	482.652
0.348271	482.652
0.328001	481.307
0.30483	481.307
0.286003	481.307
0.265728	481.307
0.246912	478.619
0.225188	478.619
0.207815	477.274
0.188988	477.274
0.165832	473.242
0.148459	471.897
0.126736	471.897
0.106476	467.865
0.0847678	463.832
0.0674045	459.799
0.0500512	453.078