File: data/nitrogen-adsorption-isotherms/ja406844r-si_page_12_PCN-225(Zn)_ads.txt
# Relative Pressure (p/p0)    Quantity Adsorbed
-0.00634926	 19.0625
-0.00257475	56.5625
-0.00279534	112.8125
-0.00293015	147.188
-0.00530147	251.875
-0.00149632	281.563
-0.0055527	315.938
-0.00563235	336.25
-0.00183946	369.063
-0.00183946	369.063
-0.00396569	411.25
0.0213223	462.8125
0.0213223	462.8125
0.0565613	476.875
0.0565613	476.875
0.084	480
0.125152	486.25
0.125152	486.25
0.168265	492.5
0.168265	492.5
0.146702	490.938
0.1859	495.625
0.201592	494.0625
0.219239	494.0625
0.236874	497.188
0.264319	498.75
0.250593	498.75
0.285887	498.75
0.325085	503.438
0.325085	503.438
0.346653	503.438
0.346653	503.438
0.305489	500.3125
0.364306	501.875
0.385881	500.3125
0.403516	503.438
0.427033	506.5625
0.448614	503.438
0.487836	501.875
0.487836	501.875
0.468222	503.438
0.509386	506.5625
0.548608	505
0.548608	505
0.527039	505
0.572125	508.125
0.587817	506.5625
0.605458	508.125
0.648602	506.5625
0.648602	506.5625
0.623118	505
0.689772	508.125
0.666261	503.438
0.705458	508.125
0.723105	508.125
0.744674	508.125
0.764276	509.688
0.779962	509.688
0.797609	509.688
0.821145	508.125
0.842713	508.125
0.868203	508.125
0.879968	508.125
0.919172	511.25