File: data/nitrogen-adsorption-isotherms/ja406030p-si_page_18_tp-PMBB-1-lon-e-H_des.txt
# Relative Pressure (p/p0)    Quantity Adsorbed
0.943873	 379.144
0.91346	379.144
0.91346	379.144
0.932282	380.488
0.887383	381.832
0.870004	381.832
0.851177	381.832
0.832346	383.176
0.810628	381.832
0.793244	383.176
0.772964	384.521
0.752689	384.521
0.735311	384.521
0.707795	384.521
0.686072	384.521
0.66724	385.865
0.649851	388.553
0.63103	387.209
0.612203	387.209
0.594824	387.209
0.571653	387.209
0.554275	387.209
0.532552	387.209
0.506484	387.209
0.489105	387.209
0.467377	388.553
0.44855	388.553
0.428286	385.865
0.409454	387.209
0.386283	387.209
0.367456	387.209
0.347181	387.209
0.32401	387.209
0.310976	387.209
0.286361	385.865
0.26754	384.521
0.247265	384.521
0.22699	384.521
0.206715	384.521
0.187893	383.176
0.167628	380.488
0.148807	379.144
0.127094	376.455
0.106824	375.111
0.0865642	371.078
0.0677476	368.389
0.047503	360.324