File: data/nitrogen-adsorption-isotherms/ja507119n-si_page_15_MOF-808-2.3SO4_des.txt
# Relative Pressure (p/p0)    Quantity Adsorbed
1	 570.297
0.880208	557.096
0.799479	554.455
0.700521	546.535
0.59375	546.535
0.497396	541.254
0.476562	541.254
0.450521	541.254
0.424479	538.614
0.401042	533.333
0.2890625	530.693
0.1953125	522.772
0.1015625	499.01
0.0520833	464.686
0.0130208	237.624