File: data/nitrogen-adsorption-isotherms/ja507119n_page_2_MOF-808 single crystal_des.txt
# Relative Pressure (p/p0)    Quantity Adsorbed
0.984616	 552.099
0.878875	546.877
0.776153	541.643
0.67652	542.048
0.591984	542.392
0.486242	537.17
0.465108	537.256
0.443974	537.342
0.398651	534.701
0.298948	529.454
0.298948	529.454
0.156802	510.249
0.156802	510.249
0.138687	510.323
0.0811469	496.426
0.0811469	496.426
0.0537286	476.754
0.00840593	231.056