File: data/nitrogen-adsorption-isotherms/ja5063423-si_page_17_4-NH2_ads.txt
# Relative Pressure (p/p0)    Quantity Adsorbed
0.991498	 205.372
0.97555	202.479
0.943614	201.033
0.918068	199.587
0.882925	199.587
0.844612	196.694
0.806274	196.694
0.780728	195.248
0.742389	195.248
0.710427	196.694
0.678491	195.248
0.636971	193.802
0.605022	193.802
0.57306	195.248
0.531553	192.355
0.509189	192.355
0.47085	192.355
0.432511	192.355
0.403757	192.355
0.359055	189.463
0.323885	192.355
0.282365	190.909
0.260014	189.463
0.22487	189.463
0.186531	189.463
0.154609	186.57
0.109907	183.678
0.046009	183.678
0.046009	183.678
0.0779315	186.57
0.0268529	182.231
0.0173078	177.893
0.0045679	173.554
0.00145222	164.876
0.00159744	148.967
0.00505637	120.041
0.00541283	80.9917
-0.00703668	44.8347
-0.000316848	8.67769