File: data/nitrogen-adsorption-isotherms/ja5063423-si_page_16_3-La_ads.txt
# Relative Pressure (p/p0)    Quantity Adsorbed
-0.000190156	 7.99226
-0.00285234	32.3935
0.00223623	25.6094
-0.00293601	47.3032
-0.00301207	60.8575
-0.00301207	60.8575
-0.00313377	82.5444
-0.00313377	82.5444
-0.00309574	75.7673
-0.00578074	104.235
-0.000684562	96.0953
-0.000684562	96.0953
-0.000798655	116.427
-0.000897536	134.047
-0.000897536	134.047
-0.00348366	144.894
-0.00101163	154.379
-0.00107248	165.222
-0.00114094	177.421
-0.001217	190.976
-0.00129306	204.53
-0.00136152	216.729
-0.00141476	226.217
-0.00152125	245.193
-0.00152125	245.193
-0.00398567	234.353
0.00349126	251.963
0.0236402	261.424
0.0236402	261.424
0.0438043	268.174
0.0816454	274.899
0.117007	273.496
0.187692	277.467
0.187692	277.467
0.225563	278.771
0.225563	278.771
0.154863	277.511
0.260894	282.789
0.329092	279.986
0.29373	281.389
0.29373	281.389
0.397251	283.96
0.356847	284.014
0.356847	284.014
0.470476	285.216
0.435123	285.264
0.435123	285.264
0.543686	289.183
0.543686	289.183
0.503297	286.527
0.573982	290.497
0.611861	290.446
0.64469	290.401
0.687597	294.409
0.7179	294.368
0.748203	294.327
0.788585	298.339
0.851701	300.964
0.851701	300.964
0.81888	299.653
0.884522	302.275
0.924911	304.931
0.957725	307.597
0.970313	314.358
0.992979	325.17