File: data/nitrogen-adsorption-isotherms/ja5063423_page_6_2_des.txt
# Relative Pressure (p/p0)    Quantity Adsorbed
0.975277	 425.681
0.975277	425.681
0.94559	407.426
0.961788	416.547
0.926879	369.198
0.878336	334.172
0.856707	326.609
0.816097	320.665
0.780886	317.762
0.745675	314.859
0.745675	314.859
0.677922	315.17
0.677922	315.17
0.718574	314.983
0.60748	312.429
0.60748	312.429
0.572249	312.591
0.534318	311.233
0.534318	311.233
0.504486	314.435
0.420535	305.626
0.350175	290.624
0.398926	294.997
0.328495	290.723
0.328495	290.723
0.287853	289.378
0.258052	287.982
0.222811	289.677
0.149669	285.415
0.1903	288.294
0.1903	288.294
0.119889	280.954
0.0467572	275.16
0.0467572	275.16
0.0196976	269.155
-0.00191058	258.526
-0.00176521	237.069
0.0014537	161.959
-0.000841069	100.667
-0.000571096	60.8186
-0.000280356	17.9054