File: data/nitrogen-adsorption-isotherms/ja5063423-si_page_17_5-NH2_ads.txt
# Relative Pressure (p/p0)    Quantity Adsorbed
0.997172	 374.461
0.991687	364.995
0.977756	356.868
0.963844	347.389
0.921824	339.225
0.882537	336.469
0.857314	332.381
0.81797	333.679
0.778663	332.274
0.742166	330.874
0.705669	329.473
0.646681	329.393
0.646681	329.393
0.565298	323.878
0.565298	323.878
0.610203	326.641
0.542789	326.55
0.503445	327.848
0.466967	325.096
0.419234	323.68
0.382736	322.28
0.351857	320.887
0.301277	322.17
0.228245	322.071
0.228245	322.071
0.18892	322.018
0.149633	319.262
0.0766384	316.461
0.0766384	316.461
0.0514149	312.373
0.0261914	308.284
0.0150506	301.513
0.0150506	301.513
0.00390973	294.741
0.00413749	278.525
-0.00415647	269.054
-0.00396667	255.541
-0.00396667	255.541
-0.0038528	247.433
-0.00356811	227.163
-0.00356811	227.163
-0.00368198	235.271
-0.000588358	215.005
-0.00053142	210.951
-0.000493462	208.248
-0.00318852	200.137
-0.00303669	189.326
-0.00286587	177.164
-0.00280894	173.11
-0.0026571	162.3
-0.00239139	143.381
-0.00222058	131.219
-0.00216364	127.165
-0.00201181	116.354
-0.00185997	105.544
-0.00168916	93.3819
-0.00157528	85.274
-0.00144243	75.8147
-0.00408055	63.649
0.00451707	51.4984
0.00459299	46.0931
-0.000873048	35.2749
-0.000740192	25.8156
-0.000645296	19.059
-0.000493462	8.2484