File: data/nitrogen-adsorption-isotherms/ja5063423-si_page_17_5-NH2_des.txt
# Relative Pressure (p/p0)    Quantity Adsorbed
0.966445	 362.258
0.966445	362.258
0.932889	351.402
0.932889	351.402
0.958113	355.49
0.890888	341.885
0.851582	340.481
0.82076	335.034
0.742147	332.225
0.714058	332.187
0.714058	332.187
0.643854	330.741
0.643854	330.741
0.57084	329.291
0.57084	329.291
0.511853	329.211
0.511853	329.211
0.32373	323.551
0.32373	323.551
0.466967	325.096
0.466967	325.096
0.393915	326.349
0.292832	323.51
0.264723	324.823
0.188958	319.315
0.146824	319.258
0.0822752	315.117
0.0822752	315.117
0.045816	311.014
0.0122037	304.212
0.00679459	289.339
0.00411851	279.876
-0.00111978	252.842
-0.00111978	252.842
-0.00079713	229.87
0.00516237	205.553
-0.00292281	181.218
0.00315056	148.794
0.00343525	128.524
0.0038528	98.7948
0.0038528	98.7948
-0.00117672	56.8961
-0.00117672	56.8961
-0.000892027	36.6262
0.0042134	73.1196
0.0042134	73.1196
0.000132855	163.655
0.00233445	6.90087
0.00233445	6.90087
0.00489666	24.4719