File: data/nitrogen-adsorption-isotherms/ja5063423-si_page_17_4-CH3_ads.txt
# Relative Pressure (p/p0)    Quantity Adsorbed
-0.000316848	 8.67769
0.00271962	26.0331
-0.00701027	41.9421
-0.000778919	59.2975
0.00227075	75.2066
0.00517519	107.025
0.00517519	107.025
-0.0013334	120.041
-0.00475273	144.628
-0.00484514	154.752
-0.00492435	163.43
-0.00821165	173.554
-0.00831727	185.124
-0.0052412	198.14
-0.00215193	209.711
0.00732712	221.281
0.00732712	221.281
0.0359755	232.851
0.0359755	232.851
0.122158	241.529
0.150899	242.975
0.150899	242.975
0.182835	244.421
0.211549	248.76
0.256278	248.76
0.294603	250.207
0.326539	251.653
0.364851	254.545
0.431944	254.545
0.393605	254.545
0.467035	260.331
0.534167	255.992
0.534167	255.992
0.495828	255.992
0.566103	257.438
0.607583	263.223
0.639559	260.331
0.681092	260.331
0.709793	266.116
0.751327	266.116
0.780068	267.562
0.815198	269.008
0.850276	276.24
0.888588	279.132
0.9109	284.917
0.955509	297.934
0.96817	310.95
0.977649	322.521
0.987102	336.983