File: data/nitrogen-adsorption-isotherms/ja5063423_page_6_1_ads.txt
# Relative Pressure (p/p0)    Quantity Adsorbed
-0.101137	 275.78
-0.00302076	271.73
-0.00324865	210.563
-0.00283674	149.764
-0.00243201	90.0265
-0.00202297	29.6522
0.000954509	286.697
-0.00183907	246.29
-0.00102341	125.9
-0.00143345	186.421
-0.000611671	65.1268
0.0176852	289.902
0.0360138	293.285
0.0508017	294.963
0.0794956	296.338
0.0906341	297.828
0.116571	299.085
0.131699	297.68
0.151406	299.02
0.170554	300.73
0.186994	299.767
0.209864	300.643
0.223026	300.454
0.254539	300.928
0.267994	301.776
0.290873	301.228
0.308283	303.436
0.326811	301.624
0.344622	302.919
0.362053	301.998
0.394923	301.66
0.405726	303.883
0.431158	301.665
0.450871	303.987
0.46685	301.96
0.487898	303.544
0.503186	301.977
0.532914	302.223
0.54447	303.089
0.569252	301.886
0.587412	303.087
0.605591	301.549
0.625949	303.338
0.641926	301.679
0.673308	301.62
0.689266	302.735
0.709642	301.962
0.730007	302.703
0.745347	300.298
0.778108	301.159
0.79263	302.96
0.813543	304.032
0.831854	303.247
0.850008	305.435
0.871088	302.249
0.886376	300.725
0.88795	312.096
0.914436	303.271
0.930952	303.414
0.95154	302.454
0.970585	304.329
0.988751	304.67
0.998668	303.648