File: data/nitrogen-adsorption-isotherms/ja5063423-si_page_16_3-Li_des.txt
# Relative Pressure (p/p0)    Quantity Adsorbed
0.99269	 376.677
0.942261	363.191
0.891763	361.904
0.821033	366.066
0.750348	362.095
0.679633	363.547
0.608948	359.576
0.568551	358.276
0.543299	358.31
0.500377	357.013
0.472599	357.05
0.434727	355.746
0.396848	355.797
0.361502	354.49
0.331206	353.176
0.257988	350.564
0.257988	350.564
0.222642	349.256
0.146892	348.004
0.146892	348.004
0.189806	350.656
0.114056	349.404
0.0812423	346.737
0.0509466	345.423
0.0307672	341.384
0.0131132	337.342
0.00556777	331.93
0.000578074	321.094
-0.00177225	289.922
-0.00408455	251.973
-0.00389439	218.088
0.00392482	174.704
-0.00339238	128.629
-0.0031718	89.3216
-0.00547649	50.0175
0.00233512	7.98883