File: data/nitrogen-adsorption-isotherms/ja507119n_page_2_MOF-808-2.5SO4_ads.txt
# Relative Pressure (p/p0)    Quantity Adsorbed
-0.00595268	 47.4099
0.00050694	81.2983
0.0013495	149.124
0.0013495	149.124
0.000752686	101.081
0.000752686	101.081
0.000893113	112.385
0.00478995	183.025
0.0050357	202.808
0.00833572	225.404
0.0147251	253.64
0.0180954	281.889
0.0396508	315.716
0.0460754	346.778
0.0406338	394.846
0.0504286	454.157
0.0720894	496.462
0.0873257	507.705
0.0994023	507.656
0.154063	532.87
0.202405	535.499
0.247693	535.315
0.299089	540.758
0.350485	546.202
0.395843	551.669
0.450258	557.1
0.501549	554.065
0.552945	559.509
0.655597	559.091
0.655597	559.091
0.60729	559.288
0.749226	561.536
0.749226	561.536
0.803642	566.967
0.848894	563.957
0.906364	572.202
0.945613	572.042
0.873118	569.511