File: data/nitrogen-adsorption-isotherms/ja5063423-si_page_17_5-CH3_ads.txt
# Relative Pressure (p/p0)    Quantity Adsorbed
0.0140818	 226.629
0.00854797	55.3102
0.00854797	14.8725
0.0104012	205.972
0.00912709	196.702
0.00912709	186.292
0.00912709	176.16
0.00912709	165.888
0.00912709	115.503
0.00912709	106.065
0.00912709	95.5157
0.00912709	85.2443
0.00912709	74.8341
0.00912709	65.118
0.00912709	45.1304
0.00912709	34.5815
0.00912709	24.5877
0.00912709	5.2942
0.0267236	231.097
0.0386624	231.923
0.0514032	236.887
0.0780429	238.194
0.0909766	240.362
0.114978	243.215
0.128178	243.742
0.148696	244.363
0.160278	244.499
0.195798	250.348
0.218191	249.285
0.230353	249.367
0.254097	251.511
0.266644	251.775
0.262783	248.481
0.290002	253.712
0.306218	250.632
0.34637	254.546
0.371659	254.968
0.395403	259.661
0.438258	258.872
0.466056	263.092
0.507367	261.965
0.515282	262.23
0.546242	264.358
0.577171	265.406
0.584777	265.727
0.616896	267.468
0.653113	269.641
0.676471	272.032
0.689598	270.184
0.724925	271.746
0.759093	272.94
0.785038	276.562
0.794419	274.548
0.821381	277.928
0.830325	276.155
0.855227	278.984
0.86681	278.317
0.887658	284.744
0.900399	280.854
0.926807	286.298
0.934104	287.092
0.956271	297.354
0.968215	299.001
0.969315	293.142
0.983628	306.146
0.992055	315.961
0.989584	307.544
0.999622	317.985
1.00812	333.193