File: data/nitrogen-adsorption-isotherms/ja507119n-si_page_14_MOF-808-P_des.txt
# Relative Pressure (p/p0)    Quantity Adsorbed
0.993671	 600.557
0.877637	588.318
0.770042	584.53
0.679325	580.671
0.582278	576.839
0.483122	575.138
0.474684	573.052
0.440928	571.073
0.413502	571.189
0.390295	571.288
0.28692	563.239
0.191983	557.275
0.092827	532.232
0.0485232	485.736
0.00843882	224.898