File: data/nitrogen-adsorption-isotherms/ja500330a-si_page_50_MOF-841_des.txt
# Relative Pressure (p/p0)    Quantity Adsorbed
0.787294	 362.058
0.787294	362.058
0.893303	367.831
0.703064	363.76
0.586195	359.826
0.586195	359.826
0.493802	359.654
0.39052	355.744
0.298108	351.855
0.20024	344.238
0.102373	336.622
0.0479943	330.944