File: data/nitrogen-adsorption-isotherms/ja507119n-si_page_15_MOF-808-1.3SO4_des.txt
# Relative Pressure (p/p0)    Quantity Adsorbed
0.997423	 585.113
0.881443	559.223
0.78866	556.634
0.698454	551.456
0.597938	546.278
0.5	548.867
0.476804	543.689
0.443299	543.689
0.425258	543.689
0.399485	541.1
0.298969	535.922
0.185567	522.977
0.0953608	502.265
0.0489691	466.019
0.0103093	230.421