File: data/nitrogen-adsorption-isotherms/ja507119n-si_page_14_MOF-808-0.65SO4_ads.txt
# Relative Pressure (p/p0)    Quantity Adsorbed
0.955614	 566.886
0.906005	562.031
0.855091	561.12
0.802872	559.345
0.759356	553.13
0.659269	556.103
0.659269	556.103
0.598346	554.397
0.502611	550.779
0.502611	550.779
0.454743	548.969
0.402524	545.009
0.354656	541.014
0.300261	541.442
0.250218	535.278
0.197998	529.132
0.154482	522.917
0.0913838	510.299
0.078329	506.03
0.06745	499.558
0.0456919	370.767
0.0456919	370.767
0.0522193	477.82
0.0369887	316.191
0.0261097	279.118
0.0130548	248.62
0.00435161	207.158
0.00435161	200.601
1.11022e-16	187.52
1.11022e-16	172.22
1.11022e-16	148.176
-0.00217581	130.707
-0.00217581	121.964
-0.00217581	111.035
-0.00217581	100.106
-0.00217581	89.1769
-0.00217581	65.1332