File: data/nitrogen-adsorption-isotherms/ja507119n-si_page_14_MOF-808-P_ads.txt
# Relative Pressure (p/p0)    Quantity Adsorbed
0.962025	 594.326
0.913502	588.166
0.805907	588.622
0.805907	588.622
0.862869	586.258
0.746835	580.385
0.700422	580.582
0.662447	580.743
0.599156	578.89
0.559072	579.06
0.506329	577.161
0.478903	577.278
0.459916	575.236
0.405063	573.347
0.35654	571.431
0.308017	567.393
0.253165	561.26
0.202532	555.109
0.160338	548.922
0.0991561	534.327
0.0843882	530.146
0.07173	521.711
0.0611814	502.658
0.0464135	400.864
0.035865	326.638
0.0253165	279.999
0.0147679	248.213
0.00843882	218.532
0.00632911	212.175
0.00421941	201.574
-0.0021097	188.868
0.0	176.127
0.0	159.151
-0.0021097	148.55
-0.0021097	133.696
-0.0021097	127.33
-0.0021097	112.476
-0.0021097	93.3777
-0.0021097	70.0355
-0.0021097	61.5474
-0.0021097	53.0594
-0.0021097	40.3273
-0.00421941	21.2381
-0.00421941	8.50597