File: data/nitrogen-adsorption-isotherms/ja507119n-si_page_14_MOF-808-0.65SO4_des.txt
# Relative Pressure (p/p0)    Quantity Adsorbed
0.993478	 611.516
0.878261	565.742
0.784783	563.755
0.7	559.557
0.6	555.392
0.495652	549.046
0.473913	549.094
0.443478	546.968
0.426087	547.007
0.397826	547.068
0.284783	540.741
0.184783	532.193
0.1	508.269
0.0478261	462.356
0.00652174	223.543