File: data/nitrogen-adsorption-isotherms/ja5063423-si_page_16_3-Cd_des.txt
# Relative Pressure (p/p0)    Quantity Adsorbed
0.505473	 348.873
0.505473	348.873
0.533258	347.48
0.603943	351.451
0.571122	350.14
0.460025	347.579
0.460025	347.579
0.641837	348.688
0.677168	352.707
0.752949	348.538
0.752949	348.538
0.710004	351.307
0.780704	352.566
0.816066	351.163
0.85142	351.115
0.889299	351.064
0.914551	351.03
0.437336	340.833
0.331313	334.2
0.331313	334.2
0.258087	332.943
0.182352	328.98
0.0864373	320.977
0.0283941	314.279
-0.00435077	299.414
-0.0017114	279.079
-0.00393243	224.865
-0.00607739	157.097
-0.00058568	78.4747
-0.00269261	3.92938
-0.00535479	28.3306
-0.00331632	115.075
-0.00880803	193.697