File: data/nitrogen-adsorption-isotherms/ja5063423-si_page_16_3-La_des.txt
# Relative Pressure (p/p0)    Quantity Adsorbed
0.982886	 323.828
0.965239	318.431
0.932434	314.409
0.897103	310.391
0.823885	307.779
0.823885	307.779
0.788539	306.471
0.750683	302.456
0.685018	303.901
0.685018	303.901
0.717847	303.856
0.649672	302.593
0.611808	299.934
0.571411	298.633
0.543626	300.026
0.510805	298.715
0.475481	293.341
0.329069	284.052
0.329069	284.052
0.430064	286.626