File: data/nitrogen-adsorption-isotherms/ja5063423-si_page_16_3-Cd_ads.txt
# Relative Pressure (p/p0)    Quantity Adsorbed
1.00034	 363.112
0.957451	356.393
0.957451	356.393
0.97763	360.432
0.924637	353.727
0.886766	352.423
0.813541	351.166
0.813541	351.166
0.858988	352.46
0.788296	349.845
0.755459	351.245
0.715063	349.944
0.677184	349.996
0.64437	347.329
0.576211	343.356
0.611542	347.374
0.611542	347.374
0.540865	342.048
0.505518	340.741
0.465122	339.44
0.432293	339.484
0.401997	338.17
0.374227	336.852
0.338896	332.834
0.301032	330.174
0.260628	330.229
0.225282	328.922
0.152064	326.31
0.152064	326.31
0.18741	327.617
0.119251	323.644
0.0813868	320.984
0.0485811	316.962
0.0233512	312.93
0.0183006	312.937
0.00822995	307.529
0.00826798	300.752
0.00325547	293.982
0.00330871	284.494
0.00335435	276.361
-0.00668589	265.531
-0.00660222	250.621
-0.00654137	239.778
-0.00652615	237.067
-0.00900579	228.938
-0.00896015	220.805
-0.0088993	209.962
-0.0113637	199.122
-0.0113561	197.766
-0.0113105	189.634
-0.0112648	181.501
-0.0111964	169.302
-0.0136684	159.818
-0.0111203	155.748
-0.0110823	148.971
-0.00349887	147.605
-0.00344563	138.117
-0.00338478	127.274
-0.00333914	119.141
-0.00327829	108.298
-0.00571989	93.3913
-0.00568947	87.9696
-0.0081615	78.485
-0.0106031	63.5787
-0.00800937	51.3763
-0.010489	43.2472
-0.0104282	32.4037
-0.0104282	32.4037
-0.0103749	22.9157
-0.0103217	13.4277