File: data/nitrogen-adsorption-isotherms/ja500330a-si_page_49_MOF-806_ads.txt
# Relative Pressure (p/p0)    Quantity Adsorbed
-0.00227273	 93.1938
0.0	123.529
0.0	175.542
0.0	190.712
-0.00454545	338.09
0.0	357.585
0.0	407.43
0.00227273	426.93
0.00681818	452.926
0.00681818	452.926
0.00681818	465.929
0.00681818	483.267
0.0159091	500.585
0.0318182	517.888
0.0613636	528.66
0.0613636	528.66
0.147727	541.476
0.209091	541.343
0.209091	541.343
0.311364	547.622
0.256818	541.239
0.347727	541.042
0.404545	545.253
0.447727	547.327
0.545455	544.948
0.545455	544.948
0.652273	546.884
0.652273	546.884
0.6	546.997
0.702273	546.775
0.75	553.173
0.85	548.622
0.95	554.907
0.95	554.907
0.984091	559.168