File: data/nitrogen-adsorption-isotherms/ja500330a-si_page_49_MOF-808_des.txt
# Relative Pressure (p/p0)    Quantity Adsorbed
0.00963575	 235.583
0.0529038	473.62
0.0955803	500.613
0.0955803	500.613
0.0776294	495.706
0.153918	515.337
0.153918	515.337
0.133731	512.883
0.297463	532.515
0.203266	522.699
0.393897	539.877
0.41856	539.877
0.440982	539.877
0.472379	542.331
0.494807	544.785
0.595711	547.239
0.69213	549.693
0.786321	557.055
0.88272	552.147