File: data/nitrogen-adsorption-isotherms/ja506357n-si_page_13_1_des.txt
# Relative Pressure (p/p0)    Quantity Adsorbed
0.985294	 4.29215
0.951872	3.23527
0.922906	2.67483
0.889483	2.2925
0.829323	2.02431
0.804813	1.92212
0.77139	1.80706
0.73574	1.71743
0.709002	1.64065
0.673351	1.56375
0.642157	1.51236
0.608734	1.41003
0.579768	1.37141
0.548574	1.26911
0.512923	1.23039
0.477273	1.1153
0.448307	1.05122
0.417112	0.999833
0.385918	0.948447
0.350267	0.871539
0.316845	0.832847
0.287879	0.717859
0.270053	0.679405
0.254456	0.640985
0.245544	0.615394
0.223262	0.589599
0.205437	0.5766
0.192068	0.538214
0.172014	0.461544
0.156417	0.448579
0.145276	0.410227
0.125223	0.384466
0.107398	0.346012
0.0918004	0.320319