File: data/nitrogen-adsorption-isotherms/ja5063423-si_page_16_3-Co_des.txt
# Relative Pressure (p/p0)    Quantity Adsorbed
0.984962	 403.796
0.969841	398.394
0.957253	391.634
0.858889	370.081
0.846293	364.676
0.810977	357.947
0.745396	344.482
0.715123	339.101
0.679785	336.438
0.641929	332.423
0.573792	324.383
0.573792	324.383
0.533395	323.082
0.500582	320.416
0.611656	327.042
0.472857	310.966
0.429966	304.247
0.399685	300.221
0.366857	300.266
0.334036	298.955
0.298697	296.292
0.220452	289.621
0.220452	289.621
0.260833	293.632
0.1876	293.732
0.111888	285.702
0.111888	285.702
0.0740087	285.753