File: data/nitrogen-adsorption-isotherms/ja500330a-si_page_46_MOF-801-SC_des.txt
# Relative Pressure (p/p0)    Quantity Adsorbed
0.904372	 182.997
0.795082	181.036
0.691257	180.94
0.590164	179.917
0.497268	178.901
0.396175	176.019
0.297814	174.998
0.196721	173.045
0.103825	167.383
0.0464481	163.612
0.010929	152.427