File: data/nitrogen-adsorption-isotherms/ja500330a-si_page_50_MOF-841_ads.txt
# Relative Pressure (p/p0)    Quantity Adsorbed
0.00296997	 46.4739
0.000323262	59.4802
0.00318211	85.5078
0.000596014	109.667
0.000596014	109.667
0.000666727	122.678
0.000717237	131.972
0.000777848	143.124
0.00083846	154.277
0.000858664	157.994
0.000919275	169.147
0.000969785	178.44
-0.00167692	191.447
-0.0015456	215.611
-0.00150519	223.046
0.00130315	239.779
0.00132335	243.497
0.0068289	256.518
0.00147488	271.378
0.00699053	286.258
0.0015961	293.683
0.00439434	308.558
0.00439434	308.558
0.0207393	316.024
0.0289319	323.474
0.0561667	334.677
0.0561667	334.677
0.0697639	336.561
0.0697639	336.561
0.145882	342.279
0.145882	342.279
0.249184	349.906
0.249184	349.906
0.21114	349.835
0.30624	348.153
0.347032	353.805
0.453041	359.578
0.406835	357.634
0.406835	357.634
0.50739	359.679
0.550858	357.901
0.605227	361.72
0.659585	363.68
0.711216	363.775
0.757402	362.003
0.860694	367.771
0.803608	363.947
0.803608	363.947
0.909598	366.003
0.950359	366.079
0.991171	375.448