File: data/nitrogen-adsorption-isotherms/ja507119n_page_2_MOF-808 single crystal_ads.txt
# Relative Pressure (p/p0)    Quantity Adsorbed
-0.00251925	 80.7454
-0.00197159	124.832
0.00190418	145.165
0.00582209	168.89
0.00582209	168.89
0.00628549	206.194
0.00628549	206.194
0.0141634	257.034
0.0141634	257.034
0.0292452	304.453
0.0371653	358.685
0.0528369	453.582
0.100484	497.477
0.100484	497.477
0.180443	517.501
0.180443	517.501
0.256652	527.365
0.350892	530.373
0.350892	530.373
0.445133	533.381
0.4924	546.754
0.4924	546.754
0.546661	539.751
0.604629	539.515
0.648147	542.729
0.691623	542.552
0.793152	548.922
0.793152	548.922
0.74601	545.722
0.843874	548.716
0.905507	551.856
0.94536	551.694