File: data/nitrogen-adsorption-isotherms/ja500330a-si_page_48_MOF-804_ads.txt
# Relative Pressure (p/p0)    Quantity Adsorbed
-0.00101143	 211.024
-0.00103166	215.223
0.000814205	232.021
0.000814205	232.021
0.00272076	236.22
0.0161324	251.969
0.0218824	258.268
0.0314809	265.617
0.0584103	275.066
0.0757413	277.165
0.0757413	277.165
0.0892237	278.215
0.145085	281.365
0.200947	284.514
0.249106	286.614
0.295344	287.664
0.347362	288.714
0.395521	290.814
0.449476	289.764
0.497636	291.864
0.545805	291.864
0.645988	293.963
0.645988	293.963
0.595902	291.864
0.742317	296.063
0.696084	293.963
0.796277	293.963
0.84829	296.063
0.90223	298.163
0.952316	300.262
0.986968	306.562