File: data/nitrogen-adsorption-isotherms/ja5063423-si_page_17_5-CH3_des.txt
# Relative Pressure (p/p0)    Quantity Adsorbed
0.986525	 332.555
0.966957	325.772
0.953064	314.942
0.936343	305.46
0.883069	298.632
0.860654	294.547
0.818539	293.139
0.790488	290.398
0.753971	290.349
0.711894	286.238
0.647308	284.799
0.608002	283.395
0.608002	283.395
0.579912	283.357
0.537797	281.949
0.512574	277.861
0.476134	272.406
0.436941	262.894
0.403272	260.145
0.358329	260.085
0.333068	258.699
0.248856	254.531
0.248856	254.531
0.229194	254.505
0.161874	247.657
0.122606	243.55
0.0917269	242.157
0.0440699	235.336
0.0440699	235.336
0.0329101	229.915
0.0133614	221.781
-0.00271404	166.354
0.000455503	140.682
0.00666173	98.7986
0.00153732	63.6566
0.00482074	29.8772
0.00514339	6.90467
-0.0058646	190.674