File: data/nitrogen-adsorption-isotherms/ja5063423-si_page_17_4-NH2_des.txt
# Relative Pressure (p/p0)    Quantity Adsorbed
0.943627	 199.587
0.892549	195.248
0.819066	195.248
0.767935	196.694
0.604982	198.14
0.477213	195.248
0.499591	193.802
0.541085	198.14
1.00429	203.926
0.32704	196.694
0.397302	199.587
0.250403	192.355
0.183297	193.802
0.106659	189.463
0.0491907	185.124
0.0109049	179.339
-0.00487154	157.645
-0.0045679	124.38
-0.00114858	99.7934
-0.000884535	70.8678
-0.000699707	50.6198
-0.00348533	5.78512