File: data/nitrogen-adsorption-isotherms/ja507119n-si_page_16_MOF-808-2.5SO4_des.txt
# Relative Pressure (p/p0)    Quantity Adsorbed
1	 591.304
0.877743	578.656
0.789969	572.332
0.702194	569.17
0.601881	559.684
0.492163	566.008
0.388715	556.522
0.288401	547.036
0.194357	531.225
0.0971787	515.415
0.0470219	442.688
0.00626959	233.992