File: data/nitrogen-adsorption-isotherms/ja5063423-si_page_17_4-CH3_des.txt
# Relative Pressure (p/p0)    Quantity Adsorbed
0.97753	 335.537
0.96483	326.86
0.952143	316.736
0.926689	305.165
0.885208	299.38
0.85652	292.149
0.815066	283.471
0.776727	283.471
0.751182	282.025
0.709701	276.24
0.671375	274.793
0.633037	274.793
0.607517	270.455
0.569192	269.008
0.540438	269.008
0.498917	267.562
0.473424	260.331
0.431917	257.438
0.396787	255.992
0.361643	255.992
0.326552	250.207
0.291408	250.207
0.249861	251.653
0.221107	251.653
0.154068	245.868
0.154068	245.868
0.0774562	238.636
0.0774562	238.636
0.0168062	232.851
0.0105748	215.496
0.00118818	193.802
0.00147863	161.983
-0.00450189	117.149
0.00234996	66.5289
0.00234996	66.5289
0.00608613	7.2314