File: data/nitrogen-adsorption-isotherms/ja507119n-si_page_15_MOF-808-1.3SO4_ads.txt
# Relative Pressure (p/p0)    Quantity Adsorbed
0.955032	 568.551
0.90364	564.116
0.860814	561.861
0.807281	561.745
0.749465	559.458
0.708779	555.046
0.655246	552.768
0.605996	550.499
0.552463	550.384
0.456103	543.689
0.406852	541.42
0.353319	539.142
0.304069	536.874
0.252677	528.114
0.199143	525.836
0.1606	519.266
0.0899358	506.14
0.0813704	499.635
0.0685225	488.797
0.0578158	475.801
0.0492505	421.728
0.0299786	287.632
0.0299786	287.632
0.0171306	255.172
0.0107066	211.915
0.0107066	198.942
0.00642398	188.122
0.00642398	172.987
0.00214133	162.167
0.00214133	142.707
0.00214133	125.41
0.00214133	110.275
0.00214133	90.8154
0.00214133	60.5452