File: data/nitrogen-adsorption-isotherms/ja507119n_page_2_MOF-808-P_ads.txt
# Relative Pressure (p/p0)    Quantity Adsorbed
0.954951	 594.614
0.84921	589.391
0.84921	589.391
0.803887	586.75
0.90352	586.344
0.74045	584.182
0.643801	581.749
0.698111	578.702
0.698111	578.702
0.562178	573.602
0.589421	579.144
0.589421	579.144
0.510852	573.811
0.492737	573.885
0.459491	571.194
0.40813	568.577
0.308462	566.156
0.308462	566.156
0.359753	563.121
0.260015	555.048
0.205635	552.443
0.166316	546.951
0.108811	535.88
0.081498	524.686
0.0661915	507.791
0.0629265	488.021
0.0527456	397.623
0.020623	242.311
0.020623	242.311
0.0303125	293.144
0.0400019	343.977