File: data/nitrogen-adsorption-isotherms/ja500330a-si_page_49_MOF-806_des.txt
# Relative Pressure (p/p0)    Quantity Adsorbed
0.897727	 550.686
0.788636	546.588
0.693182	551.129
0.595455	544.84
0.470455	545.11
0.493182	547.228
0.493182	547.228
0.415909	543.061
0.415909	543.061
0.295455	545.49
0.295455	545.49
0.2	541.362
0.0522727	524.345
0.0863636	530.773
0.0863636	530.773
0.0113636	494.093