File: data/nitrogen-adsorption-isotherms/ja507119n-si_page_15_MOF-808-2.3SO4_ads.txt
# Relative Pressure (p/p0)    Quantity Adsorbed
0.949458	 557.17
0.907942	553.593
0.855596	551.862
0.799639	551.964
0.756318	548.39
0.702166	552.142
0.658845	543.089
0.552347	541.457
0.552347	541.457
0.5	536.073
0.451264	536.162
0.400722	536.254
0.348375	534.524
0.297834	530.963
0.247292	525.576
0.209386	521.992
0.149819	511.142
0.099278	500.275
0.0794224	493.006
0.0703971	487.543
0.0595668	482.083
0.0523466	436.434
0.0469314	414.526
0.0397112	350.612
0.0379061	337.83
0.0288809	304.97
0.0144404	262.987
0.0108303	230.117
0.00902527	215.509
0.00361011	202.733
0.00361011	193.601
0.00361011	184.468
0.00361011	173.509
0.0	151.598
-0.00361011	133.34
-0.00361011	120.555
-0.00361011	93.1573
-0.00361011	93.1573
-0.00180505	65.7567