File: data/nitrogen-adsorption-isotherms/ja500330a-si_page_46_MOF-801-P_des.txt
# Relative Pressure (p/p0)    Quantity Adsorbed
0.892761	 292.647
0.798928	289.706
0.699732	289.706
0.597855	285.294
0.49866	285.294
0.466488	282.353
0.44504	280.882
0.423592	276.471
0.396783	273.529
0.292225	266.176
0.198391	257.353
0.147453	250
0.0911528	241.176
0.0428954	229.412