File: data/nitrogen-adsorption-isotherms/ja500330a-si_page_50_UiO-66_ads.txt
# Relative Pressure (p/p0)    Quantity Adsorbed
-0.00322843	 172.419
0.00383056	261.747
0.00205816	216.282
-0.0016887	205.267
-0.00122793	199.464
-0.0017709	193.299
-0.00181199	187.316
-0.00185309	181.332
0.00551802	252.326
0.00509182	244.939
0.00505148	239.064
0.00494052	222.909
0.00650411	231.898
0.00949626	273.09
0.0134979	281.796
0.0102321	264.467
0.0227596	290.509
0.0262937	294.838
0.0340981	297.316
0.0470341	301.852
0.069085	305.289
0.0801101	306.97
0.091129	307.736
0.102141	307.563
0.112538	312.435
0.123176	308.824
0.13422	313.275
0.145928	313.381
0.156247	313.176
0.167238	309.838
0.175255	310.867
0.189753	315.268
0.200288	311.198
0.210678	314.735
0.21466	314.33
0.235777	315.372
0.246371	315.055
0.256857	315.327
0.25236	312.335
0.268406	316.143
0.279838	316.256
0.301468	319.204
0.313465	316.613
0.324479	316.687
0.335493	316.687
0.346953	316.075
0.357523	317.192
0.368537	317.206
0.379551	317.256
0.391019	317.827
0.412423	316.899
0.449611	313.399
0.460891	315.712
0.471648	314.783
0.482674	316.539
0.494369	314.825
0.502727	320.668
0.505385	315.181
0.515311	318.517
0.526745	319.026
0.537758	318.898
0.559954	319.216
0.570803	319.407
0.582486	319.686
0.604237	315.962
0.614162	319.18
0.625876	320.132
0.636889	320.099
0.648127	318.008
0.658917	320.198
0.657883	315.448
0.66993	320.099
0.681613	320.33
0.691931	316.267
0.703362	316.347
0.713285	319.132
0.724996	319.769
0.736009	319.769
0.747465	318.536
0.757789	318.461
0.76975	320.702
0.780046	317.206
0.79123	317.639
0.802087	319.11
0.812246	319.667
0.824126	320.869
0.835139	320.849
0.846776	319.464
0.857288	320.257
0.855736	316.687
0.86818	320.742
0.879328	320.912
0.890607	318.296
0.898526	322.009
0.905996	319.482
0.915702	321.08
0.914813	317.231
0.927257	321.335
0.938686	321.152
0.949278	320.507
0.959409	320.607
0.971316	322.077
0.982331	322.151
0.993581	321.868
1.00387	323.65
1.00283	319.101