File: data/nitrogen-adsorption-isotherms/ja5063423-si_page_16_3-Co_ads.txt
# Relative Pressure (p/p0)    Quantity Adsorbed
0.997581	 405.134
0.990066	394.301
0.977539	376.697
0.929794	334.744
0.886926	323.959
0.85666	317.222
0.821329	313.204
0.783458	311.9
0.748127	307.882
0.717831	306.567
0.472918	300.122
0.435069	294.752
0.397183	296.158
0.356801	292.147
0.336591	293.53
0.293669	292.233
0.260841	292.277
0.223	285.551
0.190164	286.951
0.157335	286.996
0.114428	282.988
0.0816074	281.677
0.0513269	277.651
0.0235641	274.978
0.0134783	272.281
0.0134859	270.926
0.00088993	265.521
0.000927961	258.744
0.00357493	237.053
0.00386397	185.547
-0.000912749	136.758
-0.000684562	96.0953
-0.00291319	43.2369
0.00486039	7.98541
-0.000509618	64.9204
-0.000509618	64.9204
-0.000266218	21.5466
0.00428992	109.643
0.00420625	124.553
-0.00566665	83.9033
0.00152885	151.665
-0.006336	203.181
-0.00392482	223.509
-0.00392482	223.509
-0.00362057	169.292