File: data/nitrogen-adsorption-isotherms/ja500330a-si_page_48_MOF-804_des.txt
# Relative Pressure (p/p0)    Quantity Adsorbed
0.87525	 299.213
0.776999	296.063
0.692231	293.963
0.588184	293.963
0.489929	291.864
0.389751	288.714
0.287637	287.664
0.197088	285.564
0.102701	280.315
0.0430112	271.916
0.0103824	245.669