File: data/nitrogen-adsorption-isotherms/ja5063423_page_6_2_ads.txt
# Relative Pressure (p/p0)    Quantity Adsorbed
-0.00269603	 238.697
-0.00263824	178.51
-0.00398418	119.668
-0.00151863	57.8568
-0.00166082	219.981
-0.0015843	208.687
-0.00152188	199.474
-0.000831656	155.64
-0.00112492	140.883
-0.00937189	139.222
-0.00249616	99.4945
-0.000727485	82.2209
-0.00067494	74.4654
-0.000411596	35.5957
0.000758936	16.7931
-0.00173992	109.765
0.00211303	257.181
0.015596	264.661
0.00702481	238.155
0.00742666	178.842
0.00851197	59.2805
0.00824776	220.169
0.00836958	202.188
0.00864803	161.089
0.00948653	37.3263
0.00960677	19.5791
0.0113407	251.211
0.0327033	267.267
0.0496313	270.674
0.0785524	274.523
0.0970611	275.569
0.113685	274.948
0.150307	275.591
0.165856	278.989
0.185852	276.295
0.204386	280.213
0.221831	277.237
0.255997	277.818
0.265509	278.531
0.291941	277.645
0.310079	282.062
0.329367	279.327
0.350391	280.289
0.363048	278.367
0.39638	278.796
0.411391	280.351
0.431936	277.877
0.465261	278.409
0.483519	279.396
0.501959	277.886
0.534632	278.035
0.544626	280.049
0.571053	279.928
0.589218	280.311
0.605841	278.107
0.640429	278.862
0.658583	280.926
0.676627	280.484
0.709776	282.092
0.727938	282.943
0.7461	283.836
0.779527	283.751
0.797276	287.528
0.815087	288.933
0.846757	297.723
0.849134	292.193
0.866548	301.92
0.883954	304.712
0.894614	303.659
0.916345	323.307
0.925847	325.465
0.958625	363.143
0.987321	428.56
0.996158	430.221