File: data/nitrogen-adsorption-isotherms/ja500330a-si_page_51_PIZOF-2_des.txt
# Relative Pressure (p/p0)    Quantity Adsorbed
0.952008	 594.609
0.844519	584.591
0.737021	577.147
0.640256	574.823
0.538114	572.512
0.449423	567.593
0.355376	557.541
0.204876	547.634
0.0974373	524.749