File: data/nitrogen-adsorption-isotherms/ja507119n_page_2_MOF-808-2.5SO4_des.txt
# Relative Pressure (p/p0)    Quantity Adsorbed
0.994095	 585.976
0.876172	572.324
0.788581	569.855
0.694916	564.583
0.598303	564.977
0.389804	551.694
0.389804	551.694
0.196367	535.524
0.196367	535.524
0.0246954	327.082
0.0246954	327.082
0.0171475	205.585
0.0442849	445.704