File: data/nitrogen-adsorption-isotherms/ja500330a-si_page_47_DUT-67_ads.txt
# Relative Pressure (p/p0)    Quantity Adsorbed
0.995008	 404.313
0.956277	402.71
0.897044	401.076
0.860583	397.933
0.801357	397.842
0.758076	397.775
0.703406	397.69
0.653285	396.07
0.607727	396
0.55532	392.832
0.512033	391.222
0.457356	389.595
0.407242	389.517
0.357106	384.81
0.304707	383.186
0.250023	380.015
0.202172	376.855
0.158878	373.702
0.0973459	367.434
0.0859493	365.873
0.0745456	362.769
0.060857	358.119
0.0380216	345.738
0.0288888	341.094
0.0196787	319.475
0.0126903	285.513
0.0126762	282.427
0.0103772	277.794
0.010342	270.078
0.0103209	265.448
0.0102999	260.818
0.0102717	254.645
0.00567371	245.379
0.00563856	237.663
0.0056034	229.947
0.00555419	219.144
0.00324815	212.968
0.00315675	192.906
0.00314269	189.82
0.00312159	185.19
0.00309347	179.017
0.00306535	172.844
0.00303723	166.671
0.00300207	158.955
0.00293177	143.523
0.00295989	149.696
0.00288958	134.264
0.00287552	131.177
0.000562449	123.458
4.21837e-05	9.25932