File: data/nitrogen-adsorption-isotherms/ja507119n-si_page_16_MOF-808-2.5SO4_ads.txt
# Relative Pressure (p/p0)    Quantity Adsorbed
0.956113	 584.98
0.855799	572.332
0.855799	572.332
0.808777	572.332
0.749216	572.332
0.705329	569.17
0.652038	566.008
0.60815	566.008
0.554859	559.684
0.504702	559.684
0.451411	562.846
0.404389	553.36
0.338558	556.522
0.297806	550.198
0.244514	540.711
0.213166	540.711
0.141066	528.063
0.100313	521.739
0.0721003	509.091
0.0564263	490.119
0.0564263	467.984
0.031348	322.53
0.031348	322.53
0.0250784	284.585
0.015674	265.613
0.0	224.506
0.0	202.372
0.0	202.372
-0.00940439	170.751
-0.00940439	170.751
-0.00940439	145.455
-0.00626959	120.158
-0.00626959	104.348
-0.00626959	66.4032
-0.00626959	15.8103
-0.00626959	15.8103