File: data/nitrogen-adsorption-isotherms/ja500330a-si_page_48_MOF-805_ads.txt
# Relative Pressure (p/p0)    Quantity Adsorbed
0.994329	 346.253
0.954631	330.749
0.907372	326.615
0.852552	323.514
0.795841	321.447
0.748582	319.38
0.699433	319.38
0.650284	317.313
0.610586	317.313
0.548204	317.313
0.500945	315.245
0.459357	315.245
0.395085	314.212
0.359168	313.178
0.294896	310.078
0.255198	309.044
0.21172	306.977
0.15879	306.977
0.100189	301.809
0.0793951	297.674
0.0642722	296.641
0.0321361	290.439
0.0245747	287.339
0.00756144	270.801
0.00756144	263.566
0.00378072	256.331
0.00378072	243.928
0.00378072	227.39
0.00189036	216.021
-0.00189036	204.651
0.00189036	193.282
0.00189036	176.744
0.00189036	155.039
0.00189036	52.7132