File: data/nitrogen-adsorption-isotherms/ja507119n_page_2_MOF-808-P_des.txt
# Relative Pressure (p/p0)    Quantity Adsorbed
0.985178	 597.317
0.873293	583.641
0.761584	584.096
0.677047	584.44
0.580363	579.181
0.471638	576.797
0.414239	574.204
0.414239	574.204
0.390085	574.303
0.290347	566.23
0.193558	552.493
0.0966991	533.103
0.0506041	468.288
0.0207986	256.442
0.00166546	174.559