File: data/nitrogen-adsorption-isotherms/ja500330a-si_page_47_MOF-802_des.txt
# Relative Pressure (p/p0)    Quantity Adsorbed
0.89145	 5.54545
0.777597	5.45455
0.686066	5.36364
0.585633	5.45455
0.482927	5.27273
0.382481	5.27273
0.284253	5.18182
0.183793	5.09091
0.0833063	4.81818