File: data/nitrogen-adsorption-isotherms/ja500330a-si_page_46_MOF-801-SC_ads.txt
# Relative Pressure (p/p0)    Quantity Adsorbed
0.993182	 187.695
0.95	183.801
0.906818	182.243
0.856818	182.243
0.804545	182.243
0.756818	182.243
0.702273	181.464
0.654545	180.685
0.602273	179.128
0.556818	179.128
0.504545	179.128
0.45	177.57
0.4	176.791
0.354545	176.012
0.302273	176.012
0.247727	174.455
0.195455	173.676
0.156818	172.118
0.0909091	171.34
0.0818182	169.782
0.0545455	166.667
0.0659091	168.224
0.0386364	164.33
0.0318182	161.994
0.0159091	157.321
0.00681818	150.312
0.00681818	144.081
0.00681818	139.408
0.00681818	133.178
-0.00227273	122.274
-0.00227273	128.505
-0.00227273	118.38
-0.00227273	111.371
-0.00227273	102.025
0.0	92.6791
0.00454545	83.3333
0.00454545	71.6511
0.00454545	63.8629
0.0	49.8442
-0.00227273	27.2586