File: data/nitrogen-adsorption-isotherms/ja500330a-si_page_50_UiO-66_des.txt
# Relative Pressure (p/p0)    Quantity Adsorbed
0.885559	 321.981
0.776567	322.145
0.686649	322.28
0.588556	322.427
0.487738	322.579
0.474114	321.096
0.446866	321.137
0.446866	321.137
0.425068	321.169
0.395095	318.207
0.294278	318.359
0.19891	316.998
0.119891	315.613
0.119891	315.613
0.171662	315.535
0.103542	312.63
0.0463215	309.709
0.0762943	312.671
0.0762943	312.671
0.0108992	288.71