File: data/nitrogen-adsorption-isotherms/ja500330a-si_page_48_MOF-805_des.txt
# Relative Pressure (p/p0)    Quantity Adsorbed
0.869757	 325.52
0.773012	322.511
0.678154	320.537
0.678154	320.537
0.577603	318.568
0.473267	315.568
0.47896	315.562
0.439111	315.603
0.40876	314.598
0.382214	312.553
0.279746	312.66
0.181113	308.617
0.0863239	299.388
0.0370563	292.186
0.00683315	277.709