File: data/nitrogen-adsorption-isotherms/ja500330a-si_page_47_DUT-67_des.txt
# Relative Pressure (p/p0)    Quantity Adsorbed
0.88566	 402.351
0.785419	399.402
0.692018	397.994
0.598611	395.033
0.498369	392.083
0.46875	390.576
0.445964	389.059
0.423192	390.647
0.395857	390.69
0.284205	383.099
0.188513	378.589
0.0973479	367.861
0.0494415	352.408
0.0104486	293.462