File: data/nitrogen-adsorption-isotherms/ja500330a-si_page_51_PIZOF-2_ads.txt
# Relative Pressure (p/p0)    Quantity Adsorbed
0.0493364	 450.241
0.0678968	517.105
0.116205	537.569
0.137711	537.513
0.194114	550.236
0.24517	555.251
0.290869	555.134
0.403714	570.285
0.497801	570.042
0.599933	574.927
0.699386	577.244
0.79883	582.135
0.892927	579.32
0.981538	604.827