File: data/nitrogen-adsorption-isotherms/ja506357n-si_page_13_1_ads.txt
# Relative Pressure (p/p0)    Quantity Adsorbed
-0.00178253	 -0.0247467
0.0115865	0.000912008
0.0271836	0.039332
0.0427807	0.0522975
0.0539216	0.116104
0.0762032	0.167353
0.0895722	0.167558
0.107398	0.218739
0.120766	0.244398
0.134135	0.282784
0.147504	0.32117
0.169786	0.359692
0.185383	0.410839
0.205437	0.462054
0.214349	0.500372
0.229947	0.513338
0.247772	0.551792
0.261141	0.577451
0.27451	0.615837
0.290107	0.666984
0.303476	0.70537
0.339127	0.795005
0.374777	0.833732
0.397059	0.884981
0.430481	0.961855
0.461676	1.00051
0.486185	1.06452
0.521836	1.11598
0.550802	1.20551
0.579768	1.29504
0.613191	1.38465
0.639929	1.41051
0.673351	1.51284
0.695633	1.56409
0.729055	1.65369
0.762478	1.73056
0.789216	1.78188
0.82041	1.92236
0.84492	2.03728
0.88057	2.20327
0.911765	2.43284
0.922906	2.58574
0.927362	2.76399
0.940731	2.98056
0.947415	3.13339
0.958556	3.42628
0.967469	3.68097