File: data/nitrogen-adsorption-isotherms/ja500330a-si_page_46_MOF-801-P_ads.txt
# Relative Pressure (p/p0)    Quantity Adsorbed
-0.00268097	 64.7059
0.0	129.412
0.0	138.235
0.0	150
0.0	161.765
0.0	175
0.0	36.7647
0.0	11.7647
0.0268097	223.529
0.0268097	223.529
0.0107239	207.353
0.0536193	235.294
0.0536193	235.294
0.0670241	235.294
0.10992	245.588
0.126005	248.529
0.168901	254.412
0.206434	255.882
0.252011	261.765
0.302949	264.706
0.351206	270.588
0.402145	273.529
0.426273	276.471
0.450402	275
0.504021	280.882
0.557641	285.294
0.608579	283.824
0.654155	286.765
0.707775	285.294
0.758713	288.235
0.809651	291.176
0.855228	288.235
0.908847	291.176
0.954424	292.647
0.994638	302.941