File: data/nitrogen-adsorption-isotherms/ja500330a-si_page_49_MOF-808_ads.txt
# Relative Pressure (p/p0)    Quantity Adsorbed
0.997721	 558.278
0.954798	555.706
0.902855	555.553
0.850898	552.954
0.80573	552.822
0.753801	555.116
0.70183	550.07
0.656634	545.044
0.604691	544.892
0.552748	544.739
0.496288	544.574
0.448848	541.988
0.396878	536.942
0.363002	536.843
0.259074	529.198
0.299739	531.764
0.198056	521.68
0.177731	521.62
0.159636	516.674
0.139297	514.168
0.125719	509.235
0.100862	506.716
0.0623593	487.031
0.0623593	487.031
0.046371	455.179
0.0345541	362.178
0.0274474	303.442
0.0181928	264.271
0.00440767	222.64
0.00661081	212.861
-0.0003025	188.376
-0.0003025	188.376
-0.0050541	146.772
-0.0050541	146.772
-0.00524748	112.52
-0.00528892	105.181