File: data/nitrogen-adsorption-isotherms/ja5063423_page_6_1_des.txt
# Relative Pressure (p/p0)    Quantity Adsorbed
0.938155	 304.779
0.818942	300.729
0.772839	305.539
0.117033	302.424
0.252528	303.333
0.179355	303.67
0.179355	303.67
0.29588	304.666
0.434085	305.564
0.602112	304.791
0.675285	304.455
0.534338	308.168
0.0818225	299.52
0.217318	300.43
0.0439017	296.629
0.0060017	290.673
-0.00743464	273.877
-0.00699853	209.507
-0.00412228	184.973
-0.00117334	149.71
-0.00072685	83.8079
-0.000363425	30.1663