File: data/nitrogen-adsorption-isotherms/ja5063423-si_page_16_3-Li_ads.txt
# Relative Pressure (p/p0)    Quantity Adsorbed
-0.00533197	 24.2643
0.0023199	10.6997
-0.0029208	44.5923
-0.000479193	59.4987
-0.000547649	71.6976
-0.000692168	97.4508
-0.000844293	124.559
-0.000844293	124.559
-0.00095078	143.535
-0.00355972	158.449
-0.0036586	176.069
-0.00380312	201.822
-0.00648812	230.29
-0.00664785	258.754
0.000775836	285.852
0.0031642	310.247
0.00556016	333.286
0.0509694	341.357
0.0812651	342.671
0.116619	342.623
0.151942	347.997
0.222635	350.612
0.222635	350.612
0.184756	350.663
0.257981	351.919
0.298385	351.865
0.333739	351.817
0.361517	351.779
0.394338	353.09
0.439785	354.384
0.472614	354.339
0.497859	355.661
0.535723	358.32
0.573609	356.913
0.616524	359.566
0.649352	359.521
0.682188	358.122
0.717535	359.429
0.750348	362.095
0.778126	362.058
0.821071	359.289
0.861475	359.234
0.894288	361.9
0.929657	359.142
0.964996	361.805
0.992721	371.255