File: data/nitrogen-adsorption-isotherms/ja500330a-si_page_47_MOF-802_ads.txt
# Relative Pressure (p/p0)    Quantity Adsorbed
0.0653139	 3.90909
0.101082	4.27273
0.152449	4.45455
0.201542	4.36364
0.255154	4.63636
0.308712	4.54545
0.353396	4.81818
0.404721	4.72727
0.500717	4.81818
0.601204	5.09091
0.706101	5.0
0.799851	5.0
0.902611	5.54545
0.996618	7.27273