File: data/nitrogen-adsorption-isotherms/ja512137t_page_3_CPM-33a_ads.txt
# Relative Pressure (p/p0)    Quantity Adsorbed
-0.0067427	 252.481
-0.00716976	238.565
-0.0123156	224.567
-0.00845944	216.116
-0.00703934	204.199
-0.00661453	191.519
-0.0124481	182.814
-0.00603722	174.286
-0.00682466	161.224
-0.00652413	146.627
-0.0123313	133.617
-0.0044606	127.224
-0.00402337	114.172
-0.00356596	100.519
-0.0109748	93.127
-0.00410058	83.2342
-0.00281126	68.8491
-0.00329298	54.2794
-0.00152508	39.5984
-0.00950052	33.8829
-0.00249368	22.802
0.000770893	6.22464
-0.00404226	267.1
0.0122864	274.873
0.0451351	278.26
0.0789447	282.179
0.112803	283.655
0.145989	285.584
0.180087	286.404
0.214697	287.046
0.247678	287.663
0.280845	288.554
0.314252	288.752
0.348427	289.483
0.382612	289.893
0.416821	289.585
0.44948	289.863
0.48185	291.13
0.516049	291.119
0.551443	291.185
0.584172	291.7
0.616839	291.742
0.651564	291.258
0.685233	291.852
0.719404	292.684
0.752589	292.464
0.785986	293.567
0.820592	294.892
0.853083	296.475
0.887174	297.529
0.917763	298.623
0.942012	306.137