File: data/nitrogen-adsorption-isotherms/ja512437u-si_page_9_Cd2(TTFTB)_ads.txt
# Relative Pressure (p/p0)    Quantity Adsorbed
0.918473	 134.015
0.818452	135.473
0.71842	137.626
0.618409	138.39
0.524301	137.761
0.421358	137.832
0.300749	139.305
0.203679	140.067
0.103688	139.442
0.0507767	137.395
0.039022	136.709
0.0272981	133.939
0.0214259	133.249
0.0097019	130.479
0.00680154	127.704
0.00680154	127.704
0.00397267	120.067
0.00113359	113.124
0.00125614	104.791
0.00141954	93.6795
0.00156252	83.9571
0.00175655	70.7626
0.00188932	61.7347
0.00201187	53.4013
-0.000755727	41.5976
0.00529009	30.4823
0.00250207	20.0676
0.00264504	10.3453