File: data/nitrogen-adsorption-isotherms/ja510525s-si_page_17_PCN-223(Fe)_des.txt
# Relative Pressure (p/p0)    Quantity Adsorbed
0.933197	 415.699
0.955879	422.266
0.955879	422.266
0.916218	422.137
0.896388	422.073
0.873716	418.752
0.831222	418.614
0.831222	418.614
0.84822	418.669
0.817058	418.568
0.794395	418.495
0.768899	418.412
0.751902	418.357
0.737737	418.311
0.717907	418.246
0.698086	421.429
0.675423	421.355
0.658426	421.3
0.635762	421.226
0.618765	421.171
0.601768	421.116
0.579105	421.042
0.553618	424.206
0.533788	424.142
0.513948	420.831
0.496951	420.776
0.477121	420.711
0.451625	420.629
0.428962	420.555
0.41763	420.518
0.3978	420.454
0.36948	423.609
0.335467	417.005
0.335467	417.005
0.312804	416.931
0.290141	416.858
0.355307	420.316
0.270311	416.793
0.253313	416.738
0.236316	416.683
0.193814	413.298
0.193814	413.298
0.168299	406.722
0.210829	419.847
0.148497	416.398
0.125806	406.584
0.108809	406.529
0.0832942	399.952
0.0492812	393.348
0.0407641	386.827
0.0294142	380.297
0.0180367	364.026
0.00659474	325.028
0.000745013	260.074
0.00333876	175.667
0.00314561	107.484
0.00299845	55.5356