File: data/nitrogen-adsorption-isotherms/ja512137t-si_page_14_CPM-33d_des.txt
# Relative Pressure (p/p0)    Quantity Adsorbed
-0.00800289	 48.1462
-0.00574761	34.4627
-0.00289458	19.9246
0.00164878	3.51265
0.00647642	55.6634
0.0123566	56.844
0.0560712	68.8395
0.0669321	69.4159
0.077793	69.9923
0.0856887	70.9408
0.114322	72.4655
0.125186	72.5585
0.134567	72.821
0.164684	73.9931
0.175549	73.9334
0.184931	73.9828
0.225915	74.8504
0.23431	74.8633
0.262128	75.0459
0.267393	75.4738
0.291756	75.3713
0.300983	74.0116
0.311836	75.822
0.31875	75.8326
0.347397	75.0667
0.358253	76.5039
0.369115	76.7495
0.379486	76.7375
0.409602	78.0584
0.420462	78.7875
0.431323	79.3639
0.440209	79.9373
0.468338	83.129
0.496473	85.3412
0.507337	85.4342
0.516226	85.4515
0.546841	85.9783
0.557705	85.995
0.5661	86.0079
0.598202	85.5483
0.609066	85.6159
0.615981	85.5247
0.646598	85.6735
0.657462	85.5884
0.665857	85.6946
0.695982	85.4695
0.715736	85.478
0.746355	85.2416
0.757219	85.3854
0.766602	85.2663
0.796727	85.1663
0.807592	84.9794
0.81648	85.2329
0.8471	84.7941
0.857963	85.0568
0.865864	85.1249
0.965995	85.782
0.997612	85.8305
0.927604	85.723
0.871145	85.6363
0.82372	85.5635
0.780789	89.3371
0.728863	86.6976
0.68143	87.9047
0.584321	87.7555
0.584321	87.7555
0.484978	83.7633
0.394675	78.5052
0.394675	78.5052
0.202732	75.6507
0.0379354	65.1587