File: data/nitrogen-adsorption-isotherms/ja510525s-si_page_17_PCN-223(Fe)_ads.txt
# Relative Pressure (p/p0)    Quantity Adsorbed
-0.0027777	 16.5558
-0.00272252	36.0365
-0.00268572	49.0237
-0.00263054	68.5044
-0.00257535	87.9851
-0.00252936	104.219
-0.00246498	126.946
-0.0024006	149.674
-0.00236381	162.661
-0.00232701	175.648
-0.00227183	195.129
-0.00223504	208.116
-0.00221664	214.61
0.000643838	224.359
0.000689826	240.593
0.000864582	302.282
0.000892176	312.022
0.000928966	325.009
0.00664073	341.262
0.0151762	354.276
0.0293958	373.803
0.0407549	383.58
0.0549562	396.613
0.0804614	399.943
0.100292	400.007
0.134286	400.118
0.156968	406.685
0.193814	413.298
0.233474	413.427
0.281633	413.583
0.256128	410.254
0.256128	410.254
0.213644	413.362
0.173983	413.234
0.30998	420.169
0.332653	423.489
0.349622	413.804
0.363805	420.343
0.392134	420.435
0.409131	420.491
0.431785	417.317
0.448792	420.619
0.479954	420.721
0.479954	420.721
0.516781	420.84
0.533779	420.895
0.533779	420.895
0.570606	421.015
0.556451	424.216
0.590445	424.326
0.613109	424.4
0.630106	424.455
0.644261	421.254
0.669757	421.337
0.69242	421.41
0.706575	418.21
0.706575	418.21
0.734923	424.795
0.746254	424.832
0.768899	418.412
0.794395	418.495
0.817076	425.062
0.834046	415.377
0.870883	418.743
0.88788	418.798
0.88788	418.798
0.902045	418.844
0.927541	418.927
0.950195	415.754
0.502626	424.041