File: data/nitrogen-adsorption-isotherms/ja512137t_page_3_CPM-33b_des.txt
# Relative Pressure (p/p0)    Quantity Adsorbed
0.98315	 262.833
0.944837	260.657
0.916888	261.605
0.868037	261.46
0.815663	262.336
0.77728	262.222
0.714403	264.098
0.669077	262.932
0.616702	263.808
0.571341	263.673
0.519001	263.517
0.470151	263.372
0.424997	257.05
0.372622	257.926
0.316793	257.76
0.274921	257.636
0.243517	257.542
0.198191	256.376
0.149375	255.2
0.100559	254.024
0.0518465	249.754
0.0309797	247.629
0.00313417	245.483
0.00106131	203.192
-0.000735176	152.65