File: data/nitrogen-adsorption-isotherms/ja510525s-si_page_17_PCN-222(Fe)_ads.txt
# Relative Pressure (p/p0)    Quantity Adsorbed
0.00288807	 16.5742
0.000432291	149.683
-0.0020051	289.286
0.0124537	393.229
0.0324494	451.735
0.063694	481.057
0.0977898	516.882
0.137542	549.479
0.26253	670.015
0.2882	731.786
0.185848	601.584
0.2341	634.208
0.29118	783.744
0.294234	861.676
0.29439	916.871
0.356815	952.788
0.356815	952.788
0.297306	946.102
0.314331	955.897
0.427674	966.005
0.473019	972.646
0.541017	976.114
0.586343	976.261
0.623208	989.367
0.660035	989.487
0.728015	986.461
0.76201	986.571
0.824343	990.021
0.886666	990.223
0.929178	996.854
0.943351	1000.15