File: data/nitrogen-adsorption-isotherms/ja512137t-si_page_14_CPM-33b_ads.txt
# Relative Pressure (p/p0)    Quantity Adsorbed
0.971722	 259.852
0.917538	257.209
0.847522	258.382
0.800089	259.589
0.712029	256.894
0.712029	256.894
0.748163	256.949
0.614936	254.185
0.565245	255.388
0.51782	255.315
0.51782	255.315
0.418446	256.443
0.364246	256.359
0.303286	253.706
0.303286	253.706
0.0774678	250.8
0.0594011	250.772
0.0435928	250.748
0.0277922	249.443
0.0052936	235.33
-0.00592871	223.794
-0.00592871	223.794
-0.00807143	204.593
-0.00787103	171.317
-0.00318479	143.167
-0.000710643	107.335
-0.00275316	71.4955
-0.0023832	10.0626