File: data/nitrogen-adsorption-isotherms/ja512137t-si_page_14_CPM-33a_ads.txt
# Relative Pressure (p/p0)    Quantity Adsorbed
-0.00442713	 126.803
-0.00388338	20.112
0.00225281	185.663
0.00206822	156.441
0.00193074	141.197
0.00240051	218.409
0.00241769	203.842
0.0025584	125.809
0.00277256	95.7142
0.00282909	80.8603
0.00322968	33.8675
0.00331784	19.2278
0.00221818	236.97
0.00245793	197.16
0.00309207	91.86
0.0028505	213.976
0.00380754	137.06
0.00340388	122.086
0.00758239	263.169
0.00492141	252.774
0.0142327	272.705
0.0191001	270.982
0.024414	274.219
0.0350638	277.052
0.0455148	277.353
0.0469192	276.501
0.0576636	278.196
0.0686333	278.938
0.0844276	280.336
0.0944431	280.725
0.106149	281.489
0.11673	281.825
0.127874	282.21
0.139582	282.62
0.149598	282.93
0.161571	283.359
0.170336	283.578
0.185147	284.18
0.195164	284.385
0.206874	284.443
0.218107	284.845
0.228599	285.112
0.240873	285.334
0.249832	285.348
0.264153	285.447
0.27337	285.618
0.285879	285.963
0.296459	286.219
0.307606	286.277
0.318839	286.434
0.329333	286.59
0.345135	286.614
0.35571	287.87
0.366984	288.547
0.378007	287.264
0.388589	287.19
0.399993	288.808
0.409249	288.931
0.421949	287.447
0.430564	287.34
0.444886	287.327
0.454103	287.434
0.466612	287.818
0.477749	289.257
0.488331	289.362
0.499942	288.461
0.510066	288.419
0.524804	290.137
0.532289	288.347
0.545621	288.538
0.55564	288.417
0.56735	288.431
0.579058	289.072
0.587967	288.596
0.60031	289.035
0.610808	288.421
0.621878	289.401
0.632814	289.255
0.645376	288.474
0.656649	288.912
0.665485	289.059
0.678952	289.261
0.68982	288.797
0.701104	289.244
0.711435	289.335
0.723522	289.154
0.733275	289.118
0.743756	289.773
0.754172	290.507
0.765866	289.55
0.776729	289.77
0.786111	289.915
0.799441	290.495
0.810304	290.661
0.825119	290.71
0.834338	290.537
0.84684	291.939
0.856865	290.878
0.868564	292.761
0.880255	292.147
0.885198	295.32
0.893254	293.173
0.906083	294.828
0.917031	297.366
0.928013	296.667
0.936201	295.918