File: data/nitrogen-adsorption-isotherms/ja512137t-si_page_12_CPM-33a_des.txt
# Relative Pressure (p/p0)    Quantity Adsorbed
-0.00147085	 230.388
-0.00233013	211.396
-0.000879145	201.137
-0.00182888	191.391
-0.00182888	184.162
-0.0026386	175.923
-0.000879145	165.379
-0.00182888	155.418
-0.00182888	148.233
-0.0026386	140.191
-0.0021759	131.448
-0.000502043	121.774
-0.0026386	111.479
-0.000879145	100.841
-0.00220482	90.4951
-0.00122738	79.791
-0.00182888	69.5401
-0.0026386	61.3837
-0.00182888	53.7021
-0.000993465	44.0001
-0.00157826	34.3038
-0.00182888	12.3009
-0.00233013	3.4166
3.29048e-05	250.826
0.000276369	240.791
0.00368487	257.108
0.0035026	266.353
0.017156	273.262
0.951289	298.767
0.951289	298.767
0.91404	298.721
0.893983	298.696
0.873926	298.672
0.851003	296.164
0.819484	296.125
0.819484	296.125
0.802292	296.103
0.802292	296.103
0.744986	296.032
0.713467	289.795
0.713467	289.795
0.676218	294.707
0.664756	294.693
0.633238	294.654
0.621777	294.64
0.598854	294.612
0.570201	294.576
0.547278	294.548
0.524355	293.279
0.504298	293.255
0.489971	293.237
0.481375	293.226
0.455587	293.194
0.429799	291.923
0.406877	291.894
0.404011	291.891
0.386819	290.63
0.369628	290.608
0.352436	290.587
0.329513	289.319
0.323782	293.031
0.323782	293.031
0.30659	291.77
0.297994	291.759
0.275072	289.251
0.26361	289.237
0.252149	289.223
0.223496	285.469
0.212034	287.934
0.197708	287.916
0.17765	287.891
0.169054	287.88
0.143266	284.129
0.13467	286.598
0.126074	286.587
0.114613	285.334
0.0945559	284.069
0.0716332	284.041
0.0487106	282.773
0.0315186	280.272
0.0315186	280.272
0.767908	294.821
0.707736	288.548
0.707736	288.548
0.707736	288.548
0.710602	291.031
0.710602	291.031
0.713467	289.795
0.713467	289.795
0.710602	288.552
0.707736	292.267