File: data/nitrogen-adsorption-isotherms/ja5111317_page_5_PCN-230_des.txt
# Relative Pressure (p/p0)    Quantity Adsorbed
-0.00374879	 28.9982
0.000707554	155.674
0.000536082	112.371
0.000673552	82.4575
0.00364464	265.486
0.00313893	223.165
0.00240064	195.713
0.00718955	317.675
0.0145468	359.224
0.0225144	387.531
0.0282391	420.604
0.0385877	453.282
0.0447098	507.281
0.0644323	552.321
0.133165	822.222
0.138967	857.698
0.150673	890.202
0.159377	930.786
0.174259	1001.52
0.181421	1043.56
0.198487	1054.49
0.217127	1061.4
0.233518	1068.69
0.251826	1072.85
0.270581	1077.31
0.287048	1083.09
0.304301	1090.86
0.322803	1090.34
0.339905	1093.37
0.358557	1097.62
0.375274	1099.95
0.392452	1103.4
0.410329	1106.98
0.426772	1109.62
0.444047	1117.27
0.460777	1126.11
0.478234	1127.14
0.494714	1130.18
0.513681	1133.72
0.530745	1137.41
0.549593	1136.8
0.56686	1141.61
0.583343	1143.9
0.60263	1145.6
0.619047	1147.18
0.636851	1148.05
0.655536	1145.19
0.672943	1149.55
0.689743	1150.55
0.70872	1151.91
0.725518	1153.48
0.744175	1156.81
0.761914	1156.51
0.777777	1158.3
0.795515	1158.52
0.812458	1162.3
0.829721	1164.09
0.847867	1165.73
0.863617	1169.55
0.882595	1170.78
0.899365	1170.72
0.916814	1173.53
0.935809	1170.98
0.947949	1170.32
0.124683	774.062
0.102714	754.503
0.0918916	709.384
0.0883925	670.785
0.0774523	651.367