File: data/nitrogen-adsorption-isotherms/ja512137t-si_page_14_CPM-35_ads.txt
# Relative Pressure (p/p0)    Quantity Adsorbed
0.0075981	 182.572
0.00376653	171.204
0.00375613	145.596
0.015742	195.137
0.0143819	185.213
0.0257463	195.135
0.0354629	201.671
0.0359421	196.805
0.0463119	202.405
0.0563406	205.372
0.0655598	208.973
0.0696497	208.567
0.079032	211.563
0.0904657	212.534
0.101132	212.69
0.113452	216.876
0.124311	217.809
0.133689	218.701
0.149402	217.186
0.162811	221.074
0.17367	221.93
0.18453	222.557
0.190461	221.727
0.204514	225.422
0.211929	224.034
0.222047	225.108
0.232907	225.837
0.244328	224.422
0.254071	228.464
0.253162	224.459
0.265489	227.643
0.276351	228.092
0.287214	228.245
0.299192	227.794
0.302995	231.788
0.311458	229.656
0.320289	230.322
0.342703	231.28
0.352446	231.596
0.364225	232.883
0.375086	233.307
0.385952	233.069
0.396819	232.602
0.402719	237.026
0.408044	234.27
0.41853	235.638
0.42939	236.367
0.440362	234.957
0.463953	237.285
0.474814	237.76
0.484566	238.026
0.497156	238.448
0.507401	238.831
0.518258	240.066
0.529119	240.617
0.540093	240.673
0.550186	241.142
0.563676	242.552
0.574537	243.154
0.584409	243.82
0.596878	243.936
0.606754	244.161
0.617977	246.071
0.628837	246.825
0.639807	247.419
0.6499	247.938
0.663388	249.702
0.674246	250.66
0.684117	251.654
0.696625	252.17
0.705418	252.464
0.741651	259.516
0.75221	260.982
0.763053	264.536
0.7739	267.478
0.784746	270.497
0.795725	273.294
0.802516	271.83
0.808388	280.889
0.817739	286.115
0.841076	300.27
0.850694	308.141
0.857567	314.788
0.864441	321.396
0.870824	327.489
0.876715	333.329
0.883591	339.601
0.888987	345.65
0.895425	348.836
0.902741	357.837
0.909618	363.845
0.916495	369.973
0.923372	376.1
0.930249	382.228
0.937267	388.276
0.94536	396.097
0.952428	398.592
0.962702	405.387
0.983797	415.005
0.987619	422.777
-0.00523502	108.608
-0.00736233	86.8468
-0.00266838	57.4171
-0.000217355	25.4243
-7.86178e-05	2.38698