File: data/nitrogen-adsorption-isotherms/ja512137t-si_page_14_CPM-33b_des.txt
# Relative Pressure (p/p0)    Quantity Adsorbed
0.996556	 261.17
0.928829	257.227
0.960446	257.275
0.876872	259.707
0.876872	259.707
0.777505	259.554
0.777505	259.554
0.82493	259.627
0.675873	260.678
0.675873	260.678
0.721047	259.467
0.581015	261.812
0.581015	261.812
0.630706	260.608
0.531339	260.456
0.481656	260.379
0.429753	253.9
0.375553	253.817
0.325854	256.301
0.285212	254.958
0.249078	254.903
0.197152	252.263
0.0978006	249.551
0.0978006	249.551
0.142952	252.18
0.00525506	241.73
-0.00592871	223.794
-0.0011731	184.126
0.00133959	141.894
-0.00286107	89.4134
-0.00249881	29.2604
-0.000171109	17.7452
-0.00234466	3.66336