File: data/nitrogen-adsorption-isotherms/ja510525s-si_page_17_PCN-223(Fe) with impurity of PCN-222(Fe)_des.txt
# Relative Pressure (p/p0)    Quantity Adsorbed
0.956118	 506.682
0.936297	509.865
0.919318	516.303
0.899469	509.745
0.873973	509.662
0.856976	509.607
0.834304	506.287
0.811622	499.719
0.791783	496.408
0.774813	506.093
0.749299	499.517
0.732311	502.709
0.692632	496.086
0.692632	496.086
0.715304	499.407
0.675644	499.278
0.65299	502.451
0.624652	499.112
0.635992	502.396
0.613329	502.322
0.596323	499.02
0.57366	498.947
0.556653	495.645
0.528324	495.553
0.516993	495.516
0.49433	495.443
0.477332	495.387
0.457511	498.57
0.429182	498.478
0.409352	498.413
0.398021	498.377
0.378172	491.819
0.361184	495.01
0.335688	494.927
0.313025	494.854
0.293167	485.049
0.276105	462.266
0.259108	462.211
0.244944	462.165
0.213773	458.817
0.1911	455.497
0.176927	452.204
0.154245	445.637
0.131555	435.823
0.114557	435.768
0.094727	435.704
0.0748692	425.899
0.0550206	419.341