File: data/nitrogen-adsorption-isotherms/ja512437u-si_page_9_Co2(TTFTB)_ads.txt
# Relative Pressure (p/p0)    Quantity Adsorbed
0.8914	 175.006
0.800233	174.375
0.694339	175.143
0.600231	174.514
0.50022	175.278
0.394346	174.657
0.303189	173.331
0.203209	172.012
0.103249	169.303
0.0503375	167.257
0.0268487	164.495
0.015135	161.031
0.00931382	156.868
0.000571901	151.319
0.000725089	140.902
-0.00203229	128.404
0.00115402	111.735
0.00161358	80.4849
0.00498371	51.3159
0.00264504	10.3453