File: data/nitrogen-adsorption-isotherms/ja512137t-si_page_12_CPM-33a_ads.txt
# Relative Pressure (p/p0)    Quantity Adsorbed
3.29048e-05	 243.681
-0.000325131	233.251
-0.000325131	226.108
-0.000325131	218.835
-0.000325131	211.615
-0.000325131	204.451
-0.000325131	197.307
-0.000325131	190.09
-0.000325131	182.921
-0.000325131	175.659
-0.000325131	168.462
-0.000325131	161.157
-0.000325131	153.96
-0.000325131	146.656
-0.00107701	139.969
-0.000325131	132.714
-0.000701069	125.05
-0.000325131	117.646
-0.00107701	109.137
-0.000325131	101.17
0.000614713	92.4037
-0.00283138	84.3959
0.000614713	78.0658
-0.00283138	69.9744
-0.000325131	65.0529
-0.000325131	57.8815
0.000614713	49.2696
-0.00107701	40.2338
-0.000325131	33.4375
-0.000325131	26.2135
-0.000325131	19.0325
-0.000325131	11.8887
-0.000951695	4.66295
0.00180518	254.691
-0.00333263	0.588393
0.00869738	247.828
0.0183214	273.386
0.0124568	264.639
0.0264416	272.637
0.0399539	276.409
0.0568174	278.761
0.0711031	279.133
0.0899	280.872
0.110952	281.903
0.129749	282.654
0.151554	283.55
0.170351	283.778
0.190651	284.634
0.210952	284.999
0.230501	285.349
0.251553	285.798
0.269598	286.015
0.289899	286.236
0.310951	286.794
0.331252	286.807
0.351553	286.963
0.367342	288.541
0.39065	287.366
0.408695	288.407
0.432003	287.811
0.450048	287.8
0.470349	288.234
0.487492	289.538
0.504559	288.657
0.519806	289.665
0.535386	288.898
0.552304	288.708
0.5711	289.009
0.586138	289.278
0.606138	289.36
0.622228	289.516
0.639333	289.759
0.655311	289.439
0.669972	289.228
0.689897	289.245
0.705686	289.646
0.725319	289.812
0.741024	290.018
0.756663	290.197
0.774107	290.325
0.788393	290.554
0.811701	291.052
0.829746	291.666
0.847457	292.24
0.862979	293.094
0.878868	293.652
0.894741	294.214
0.9117	295.139
0.928993	297.053