File: data/nitrogen-adsorption-isotherms/ja510525s-si_page_17_PCN-222(Fe)_des.txt
# Relative Pressure (p/p0)    Quantity Adsorbed
0.951813	 987.188
0.937676	996.882
0.889508	993.479
0.889508	993.479
0.847006	990.094
0.832841	990.048
0.818677	990.002
0.79319	993.166
0.770527	993.093
0.75353	993.037
0.736523	989.735
0.736523	989.735
0.719526	989.68
0.696853	986.36
0.67419	986.286
0.651527	986.213
0.637363	986.167
0.611858	982.837
0.597693	982.791
0.575012	976.224
0.546683	976.132
0.52402	976.058
0.515521	976.031
0.4957	979.213
0.475851	972.655
0.453188	972.582
0.42485	969.243
0.405002	962.685
0.405002	962.685
0.37384	962.584
0.37384	962.584
0.336985	952.724
0.336985	952.724
0.317164	955.906
0.30013	942.864
0.294243	864.923
0.294206	851.936
0.294188	845.442
0.294151	832.455
0.294078	806.481
0.294078	806.481
0.291217	796.731
0.293995	777.26
0.293949	761.026
0.293903	744.792
0.288182	725.293
0.288182	725.293
0.288108	699.318
0.285266	696.062
0.279554	679.81
0.271047	676.536
0.248301	647.241
0.248301	647.241
0.219917	627.668
0.219917	627.668
0.234109	637.455
0.182988	591.834
0.182988	591.834
0.157437	572.271
0.157437	572.271
0.126211	549.442
0.0892819	513.608
0.0892819	513.608
0.0466783	474.509
0.0466783	474.509
0.0237944	396.512