File: data/nitrogen-adsorption-isotherms/ja5111317_page_5_PCN-229_des.txt
# Relative Pressure (p/p0)    Quantity Adsorbed
-0.0171305	 62.8827
-0.0137729	235.15
-0.014603	190.055
-0.00762837	308.885
-0.0110756	268.968
0.000511466	366.024
-0.00513939	331.594
0.00575921	408.301
0.0120908	449.33
0.0181368	497.848
0.0122131	110.852
0.0123933	71.6474
0.0244198	544.271
0.0318329	590.715
0.0362926	627.125
0.0434188	679.768
0.052251	794.383
0.0538424	758.456
0.056044	854.987
0.0556224	822.578
0.0632954	902.315
0.0759372	972.998
0.0839084	999.125
0.0946337	1060.03
0.103939	1087.18
0.111403	1127.68
0.119752	1165.52
0.129127	1192.93
0.140347	1230.25
0.156622	1248.23
0.187599	1330.73
0.202043	1344.8
0.220389	1367.5
0.237612	1378.08
0.253169	1382.45
0.271647	1386.97
0.288409	1396.39
0.305809	1402.28
0.341555	1411.57
0.359751	1413.43
0.37763	1416.86
0.394107	1420.29
0.412001	1420.43
0.430184	1425.22
0.446594	1428.29
0.465077	1431.81
0.4815	1432.26
0.498137	1434.94
0.515705	1438.22
0.532509	1438.42
0.549929	1439.86
0.568989	1440.13
0.585688	1446.3
0.603569	1449.14
0.621619	1445.99
0.637896	1447.23
0.655682	1452.02
0.672639	1452.7
0.689899	1455.22
0.707005	1457.42
0.724834	1456.19
0.741229	1459.16
0.758493	1460.92
0.775459	1459.66
0.809666	1465.04
0.827564	1464.16
0.845758	1466.73
0.863064	1470.47
0.882772	1470.82
0.900056	1471.9
0.916232	1469.43
0.934738	1471.75
0.944999	1473.79