File: data/nitrogen-adsorption-isotherms/ja5111317_page_5_PCN-228_ads.txt
# Relative Pressure (p/p0)    Quantity Adsorbed
-0.0155653	 60.8631
-0.0128799	238.35
-0.0130346	187.356
-0.00812982	401.876
-0.00649952	288.97
-0.003496	312.579
0.0114924	533.717
0.0162922	577.583
0.0225852	619.017
0.0260475	655.652
0.0333849	714.34
0.027466	685.558
0.036113	835.493
0.0389925	759.134
0.045387	905.435
0.0444811	799.881
0.0519405	946.591
0.0608781	976.858
0.0704997	1013.48
0.0800736	1057.91
0.0901697	1092.59
0.100389	1126.16
0.140408	1127.13
0.15765	1137.47
0.190779	1151.8
0.208911	1156.27
0.226005	1161.19
0.242929	1185.96
0.260198	1169.78
0.276981	1174.34
0.291282	1177.5
0.313815	1183.75
0.370777	1189.69
0.386131	1192.18
0.403674	1196.04
0.419168	1198.3
0.437456	1197.29
0.454561	1199.67
0.48878	1202.39
0.504821	1222.45
0.521446	1204.67
0.538402	1208.81
0.555083	1213.21
0.57302	1211.89
0.590468	1210.36
0.606681	1212.17
0.625659	1213.18
0.642459	1214.26
0.659883	1214.98
0.694097	1218.88
0.711343	1221.4
0.728312	1222.73
0.743691	1219.64
0.763017	1221.25
0.77919	1223.36
0.79677	1224.03
0.813883	1224.74
0.830991	1226.32
0.848248	1229.55
0.863002	1226.03
0.884276	1228.25
0.902552	1229.72
0.919352	1230.74
0.936778	1231.15
0.948177	1233.6