File: data/nitrogen-adsorption-isotherms/ja512137t-si_page_14_CPM-33c_des.txt
# Relative Pressure (p/p0)    Quantity Adsorbed
0.989851	 249.641
0.931165	244.432
0.883717	248.198
0.824992	249.388
0.779833	248.039
0.73015	247.962
0.633018	251.653
0.581077	251.573
0.531393	251.497
0.481702	252.7
0.436512	256.47
0.382328	253.828
0.337153	255.038
0.278452	252.388
0.251329	256.186
0.194894	252.26
0.149735	250.911
0.0978006	249.551
0.00981027	235.337
0.00335128	182.853
-0.00754731	117.563
-0.00272233	66.3761
-0.00686133	3.65642
0.00191766	45.9054
0.00191766	45.9054
-0.00284566	86.8537
0.00136271	138.055
0.00349772	158.536