File: data/nitrogen-adsorption-isotherms/ja512137t_page_3_CPM-33b_ads.txt
# Relative Pressure (p/p0)    Quantity Adsorbed
-0.00420687	 227.69
-0.00562081	212.644
-0.00528197	197.451
-0.00459664	182.072
-0.00426248	167.019
-0.00357512	151.58
-0.00324298	136.587
-0.00255731	121.199
-0.002223	106.141
-0.00153191	90.5905
-0.00120019	75.6097
-0.000511151	60.1207
-0.000182109	45.22
0.000314218	30.4047
0.000990515	15.296
0.00812179	245.299
0.0404493	249.357
0.0740408	252.254
0.106527	253.873
0.13783	256.512
0.170406	255.42
0.214794	256.005
0.266823	257.065
0.295915	257.151
0.346439	257.4
0.381144	257.525
0.409215	257.609
0.450545	258.059
0.486582	259.075
0.516907	257.888
0.551586	258.799
0.591392	259.016
0.626244	258.585
0.654194	258.453
0.692459	259.001
0.727163	259.136
0.751811	260.858
0.79038	261.436
0.839383	261.38
0.891458	261.051
0.920774	260.998
0.958845	260.78