File: data/nitrogen-adsorption-isotherms/ja512137t-si_page_14_CPM-33c_ads.txt
# Relative Pressure (p/p0)    Quantity Adsorbed
0.976331	 244.501
0.919881	243.134
0.919881	243.134
0.813708	248.091
0.813708	248.091
0.761766	248.011
0.714334	249.218
0.666909	249.145
0.666909	249.145
0.562994	254.105
0.562994	254.105
0.434262	255.187
0.350711	253.779
0.350711	253.779
0.260362	256.2
0.0797339	249.523
0.0684422	249.506
0.0458897	244.352
0.00981027	235.337
0.00981027	235.337
-0.00142745	226.361
-0.00336977	173.884
-0.00276858	74.0552
-0.00462612	7.49945