File: data/nitrogen-adsorption-isotherms/ja512137t_page_3_CPM-33a_des.txt
# Relative Pressure (p/p0)    Quantity Adsorbed
0.940035	 299.834
0.918995	302.866
0.891081	302.783
0.873634	302.731
0.845719	302.648
0.835321	300.554
0.821363	300.513
0.807406	300.471
0.796973	299.409
0.782981	300.399
0.762079	299.305
0.737689	298.202
0.720276	297.119
0.706319	297.077
0.681859	298.036
0.646966	297.932
0.622541	297.86
0.612073	297.828
0.591137	297.766
0.57718	297.725
0.563257	296.652
0.542321	296.59
0.521385	296.528
0.510917	296.497
0.49347	296.445
0.46559	295.331
0.444689	294.237
0.430732	294.196
0.413285	294.144
0.385371	294.061
0.371448	292.988
0.347023	292.916
0.336555	292.885
0.305151	292.791
0.270257	292.688
0.22842	291.532
0.238888	291.563
0.203995	291.46
0.186548	291.408
0.169102	291.356
0.158668	290.294
0.1482	290.263
0.144711	290.252
0.113411	287.065
0.0715733	285.909
0.0506719	284.816
0.0298396	281.66
0.0057598	271.275
-0.0011152	268.161
-0.00450088	265.056
-0.00356809	237.213
-0.0204965	221.692