File: data/nitrogen-adsorption-isotherms/ja512137t-si_page_14_CPM-33a_des.txt
# Relative Pressure (p/p0)    Quantity Adsorbed
0.957926	 300.787
0.957926	300.787
0.90825	299.43
0.930826	300.745
0.896951	300.693
0.874367	300.658
0.851799	298.064
0.833709	301.876
0.833709	301.876
0.793075	299.254
0.813392	300.565
0.813392	300.565
0.745673	295.341
0.770507	296.659
0.725356	294.03
0.709547	294.006
0.695982	296.545
0.695982	296.545
0.677915	296.517
0.653089	293.919
0.625997	292.598
0.605672	292.566
0.596638	292.553
0.576313	292.521
0.55373	292.487
0.537922	292.462
0.513064	294.984
0.497264	293.68
0.497264	293.68
0.445338	291.04
0.467913	292.355
0.427263	292.292
0.413713	292.272
0.395646	292.244
0.370812	290.926
0.350487	290.895
0.336937	290.874
0.314354	290.839
0.294029	290.808
0.294029	290.808
0.244338	292.012
0.266937	289.486
0.266937	289.486
0.226287	289.424
0.192419	288.092
0.205962	289.393
0.205962	289.393
0.145002	286.739
0.16081	286.764
0.16081	286.764
0.10661	286.681
0.12016	286.701
0.0817841	284.083
0.0704924	284.065
0.0479245	281.471
0.0321239	280.167
0.00507779	271.166
0.00284257	267.323
0.00284257	267.323
0.00291194	255.805
-0.00603661	241.712
-0.00603661	241.712
-0.00590558	219.955
-0.00121935	191.805
-0.00311542	131.649
-0.00266838	57.4171
-0.00263755	52.2977
-0.00255277	38.2194
-0.00236008	6.22306
-0.00236008	6.22306