File: data/nitrogen-adsorption-isotherms/ja5111317_page_5_PCN-230_ads.txt
# Relative Pressure (p/p0)    Quantity Adsorbed
-0.0261161	 -182.674
0.00671478	103.421
0.0046538	62.8227
0.00738394	33.0558
0.00898408	216.504
0.00725636	173.679
0.00794081	145.666
0.00803275	4.73525
0.0163798	266.107
0.0207175	310.623
0.0276306	348.786
0.0443164	428.969
0.056508	460.595
0.064786	506.123
0.080858	579.413
0.0851518	612.482
0.0917341	639.32
0.10505	690.341
0.119814	736.571
0.133389	773.557
0.14772	815.11
0.171121	883.934
0.177621	918.226
0.184881	967.822
0.177502	880.576
0.185825	931.674
0.197297	995.987
0.215901	1015.79
0.233319	1025.57
0.250792	1028.58
0.267704	1031.76
0.284149	1036.71
0.301242	1041.76
0.318335	1046.67
0.335434	1050.48
0.352534	1054.03
0.369635	1057.17
0.386744	1058.68
0.403846	1061.82
0.420946	1065.42
0.438041	1069.84
0.455268	1074.06
0.472622	1078.7
0.490567	1079.68
0.506441	1083.95
0.522902	1085.36
0.540256	1090
0.557736	1095.56
0.574845	1096.94
0.591953	1098.84
0.609059	1100.97
0.626173	1101.31
0.643284	1102.52
0.660394	1103.73
0.677506	1104.69
0.694612	1106.89
0.711727	1107.11
0.728839	1107.95
0.745953	1108.41
0.763066	1109.13
0.780173	1111.08
0.797279	1113.15
0.814515	1115.38
0.832097	1116.03
0.849687	1117.1
0.865715	1119.35
0.88217	1122.04
0.899923	1124.61
0.917623	1127.77
0.934137	1128.51
0.948121	1132.97