File: data/nitrogen-adsorption-isotherms/ja512137t-si_page_14_CPM-34_des.txt
# Relative Pressure (p/p0)    Quantity Adsorbed
0.0050983	 278.069
0.0113512	278.452
0.0168919	287.77
0.0260982	289.762
0.0365987	295.525
0.0467961	296.931
0.0588513	301.06
0.0679488	301.488
0.0789499	304.303
0.0857608	304.967
0.109612	307.802
0.118826	308.58
0.129685	309.487
0.141147	308.578
0.147473	307.86
0.163253	311.625
0.174114	312.176
0.184975	312.727
0.206282	312.509
0.216571	314.251
0.227433	314.7
0.236816	314.644
0.250325	312.963
0.26397	315.876
0.274832	316.223
0.284708	316.374
0.308524	316.006
0.317789	317.358
0.343658	317.376
0.353154	317.52
0.3647	317.989
0.375562	318.286
0.384735	317.98
0.397798	316.081
0.414076	319.134
0.42494	319.201
0.435411	318.966
0.446645	323.153
0.463366	324.455
0.484084	338.603
0.490483	342.111
0.514158	346.933
0.546256	347.171
0.55712	347.111
0.565515	347.171
0.595634	347.985
0.606498	348.027
0.615881	348.006
0.645017	348.137
0.65588	348.433
0.665755	348.646
0.697357	349.159
0.70822	349.43
0.747719	350.839
0.758579	351.517
0.76944	352.017
0.779313	352.615
0.810892	357.067
0.821741	359.578
0.83259	362.138
0.841467	364.14
0.868076	373.897
0.897661	381.346
0.908521	382.024
0.916914	382.414
0.943875	379.231
0.95019	378.449
0.973699	383.498
0.982089	384.287
-0.00385536	254.514
-0.00797894	189.235
-0.00797894	189.235
-0.000918749	141.891
-0.000772304	117.574
-0.000710643	107.335
-0.000672105	100.936
-0.0027917	77.8948
-0.000348385	47.1818
-0.000255893	31.8236
-9.40331e-05	4.94668
-9.40331e-05	4.94668