File: data/nitrogen-adsorption-isotherms/ja512437u-si_page_9_Mn2(TTFTB)_ads.txt
# Relative Pressure (p/p0)    Quantity Adsorbed
0.918198	 152.765
0.803491	152.845
0.697617	152.224
0.618174	154.362
0.524096	151.65
0.418182	153.807
0.309368	153.188
0.203515	151.178
0.100593	149.861
0.0623577	149.887
0.0270938	147.828
0.0153903	143.67
0.0036663	140.9
0.000868064	131.18
0.00396246	120.761
-0.00176677	110.348
-0.004565	100.628
-0.0044016	89.5168
-0.00132763	80.4869
-0.00115402	68.6813
-0.00101104	58.9589
-0.000908915	52.0144
-0.000735302	40.2087
-0.000582114	29.792
-0.000439138	20.0696
0.00265526	9.65083