File: data/nitrogen-adsorption-isotherms/ja510525s-si_page_17_PCN-223(Fe) with impurity of PCN-222(Fe)_ads.txt
# Relative Pressure (p/p0)    Quantity Adsorbed
5.51861e-05	 16.565
0.000220744	75.0071
0.000377105	130.202
-0.00234541	169.155
-0.00229942	185.389
0.000689826	240.593
0.00658554	321.781
0.0208236	347.801
0.0265905	383.534
0.0323115	403.033
0.106031	426
0.174085	448.948
0.213745	449.077
0.233594	455.635
0.267588	455.745
0.295945	465.578
0.321496	485.141
0.352648	481.996
0.378163	488.572
0.412167	491.929
0.446161	492.039
0.488691	505.165
0.522649	492.288
0.567994	498.928
0.618986	499.094
0.715286	492.913
0.667127	492.757
0.667127	492.757
0.774804	502.847
0.842802	506.314
0.882463	506.443
0.927798	509.837
0.953294	509.92