File: data/nitrogen-adsorption-isotherms/ja5111317_page_5_PCN-229_ads.txt
# Relative Pressure (p/p0)    Quantity Adsorbed
-0.0137729	 235.15
-0.0110756	268.968
0.000511466	366.024
-0.00513939	331.594
0.0246057	461.496
0.031892	501.228
0.0399449	543.424
0.0464246	592.435
0.0599606	668.622
0.056515	628.367
0.0699543	797.407
0.0660189	712.749
0.0680275	759.378
0.0725844	837.295
0.0723376	740.526
0.0865432	933.662
0.0994022	1002.24
0.109882	1035.48
0.119778	1083.04
0.138892	1156.18
0.146524	1188.37
0.16334	1219.66
0.179632	1244.87
0.185029	1274.27
0.199745	1288.63
0.210369	1313.12
0.226807	1325.24
0.243881	1334.47
0.260704	1341.64
0.27804	1350.2
0.295136	1354.67
0.312233	1358.85
0.329984	1361.78
0.346433	1365.84
0.363539	1367.92
0.380637	1371.97
0.397736	1375.65
0.414835	1379.29
0.431942	1381.39
0.449045	1384.2
0.466153	1385.78
0.483261	1387.73
0.500365	1390.32
0.517471	1392.5
0.534574	1395.33
0.551682	1397.03
0.568783	1400.42
0.585896	1401.06
0.603007	1402.14
0.620109	1405.08
0.638768	1407.92
0.655877	1409.43
0.67299	1410.21
0.69009	1413.65
0.707202	1414.61
0.723546	1413.29
0.741428	1415.79
0.758537	1417.49
0.775642	1419.8
0.809861	1422.77
0.826973	1423.57
0.844082	1425.02
0.860667	1427.83
0.877902	1430.05
0.895267	1432.35
0.912522	1430.29
0.929643	1429.21
0.945783	1438.53