File: data/nitrogen-adsorption-isotherms/ja5111317_page_5_PCN-228_des.txt
# Relative Pressure (p/p0)    Quantity Adsorbed
-0.0155653	 60.8631
-0.00916029	347.053
-0.0128799	238.35
-0.0130346	187.356
-0.00418015	442.64
-0.00812982	401.876
-6.18039e-05	517.573
-0.00162828	481.76
-0.00649952	288.97
0.00483152	610.165
0.00853252	638.271
0.0133262	666.728
0.0170515	706.399
0.0247146	759.453
0.0315085	799.106
0.0361108	835.987
0.0352856	880.108
0.045387	905.435
0.0519405	946.591
0.0608781	976.858
0.0704997	1013.48
0.0800736	1057.91
0.0901697	1092.59
0.100389	1126.16
0.155743	1179.95
0.189607	1192.21
0.207168	1197.14
0.225806	1204.45
0.26001	1210.6
0.277265	1214.19
0.294049	1218.76
0.310623	1220.12
0.327892	1224.42
0.345956	1223.43
0.362631	1226.88
0.379037	1231.07
0.398707	1232.04
0.414978	1235.26
0.433852	1236.6
0.45127	1238.49
0.470552	1241.24
0.48808	1241.85
0.50726	1244.17
0.524528	1248.85
0.544037	1237.44
0.564983	1235.58
0.579741	1250.44
0.614747	1251.43
0.632022	1250.66
0.648812	1253.93
0.665911	1257.74
0.683376	1257.01
0.700943	1241.53
0.717572	1257.3
0.735339	1259.59
0.751482	1259.65
0.7686	1259.23
0.785848	1264.47
0.805915	1265.5
0.826145	1265.08
0.846372	1265.33
0.864471	1259.88
0.883509	1261.97
0.898906	1270.59
0.915745	1270.67
0.933484	1270.71
0.947711	1270.44