File: data/nitrogen-adsorption-isotherms/ja512137t-si_page_14_CPM-34_ads.txt
# Relative Pressure (p/p0)    Quantity Adsorbed
0.0050983	 278.069
0.0113512	278.452
0.0168922	287.733
0.0259593	289.402
0.0365987	295.525
0.0467961	296.931
0.0588513	301.06
0.0679488	301.488
0.0789499	304.303
0.0857608	304.967
0.109612	307.802
0.118826	308.58
0.129685	309.461
0.141147	308.578
0.147473	307.86
0.163253	311.625
0.174114	312.226
0.184481	312.787
0.209006	313.21
0.219533	314.408
0.230396	314.73
0.237803	314.856
0.26397	315.876
0.274832	316.198
0.284708	316.374
0.314332	317.327
0.320752	317.362
0.343658	317.354
0.353154	317.541
0.3647	317.989
0.375562	318.26
0.384735	318.02
0.397798	316.081
0.414076	319.159
0.42494	319.201
0.435411	318.966
0.446316	318.208
0.45782	318.412
0.473332	319.835
0.496447	319.386
0.507198	319.448
0.517776	320.184
0.52864	320.2
0.539878	319.658
0.549054	319.858
0.564194	320.535
0.575058	320.551
0.584278	320.332
0.596405	320.95
0.611104	321.306
0.639365	320.775
0.650121	320.641
0.663941	321.807
0.674804	322.053
0.684558	321.909
0.696841	322.103
0.707678	322.274
0.718254	323.366
0.729116	323.714
0.740353	323.429
0.749529	323.506
0.763674	325.472
0.774534	326.252
0.784284	326.785
0.796652	327.198
0.807395	328.545
0.817963	331.025
0.828816	332.797
0.840659	334.281
0.848804	334.919
0.861365	340.2
0.872208	343.652
0.880588	346.302
0.89784	351.604
0.909154	358.987
0.919488	364.994
0.930316	371.092
0.941143	377.321
0.94745	379.588
0.973699	383.498
0.981595	384.37
-0.00383223	250.675
-0.003601	212.279
-0.003601	212.279
-0.0012733	200.764
0.00348231	161.096
-0.00532751	123.966
-0.00532751	123.966
-0.00287649	91.9731
-0.000425461	59.9803
-0.000271309	34.3833
-0.00236778	7.50291