File: data/nitrogen-adsorption-isotherms/ja512137t-si_page_14_CPM-35_des.txt
# Relative Pressure (p/p0)    Quantity Adsorbed
0.00472032	 182.296
0.00031954	60.2306
0.00311679	169.757
0.00425273	145.138
0.00938828	194.395
0.0045584	176.383
0.0124069	185.164
0.0185929	195.05
0.0290987	195.225
0.0333998	201.923
0.0410615	203.648
0.0434335	199.28
0.0527368	204.301
0.0627481	208.384
0.0582225	203.612
0.0742157	209.844
0.0817089	212.441
0.0927366	212.646
0.1033	213.421
0.11444	216.903
0.125298	217.861
0.136159	218.463
0.14703	217.36
0.158209	219.78
0.168733	221.592
0.179593	222.372
0.190362	221.923
0.201406	222.128
0.203666	226.729
0.212942	224.405
0.223034	225.186
0.233894	225.839
0.244767	224.38
0.251152	230.163
0.255822	225.575
0.266476	227.695
0.277338	228.145
0.288203	228.085
0.299317	227.669
0.302247	233.023
0.310024	229.122
0.320783	230.183
0.332974	228.663
0.342705	230.944
0.352445	231.689
0.364224	232.909
0.375086	233.332
0.385952	233.095
0.397066	232.592
0.401138	237.051
0.408002	234.5
0.41853	235.663
0.42939	236.342
0.440262	235.163
0.451571	243.328
0.45894	249.686
0.466783	259.402
0.475642	264.265
0.483016	269.894
0.490878	276.483
0.496776	281.11
0.511074	284.91
0.518912	295.481
0.529739	301.68
0.538598	306.662
0.564232	314.174
0.57509	315.336
0.585948	316.421
0.59352	316.382
0.608633	321.582
0.619501	320.925
0.630356	322.57
0.6401	324.045
0.66883	330.033
0.674748	331.339
0.697414	339.77
0.708248	344.774
0.719082	349.879
0.729916	354.908
0.739272	359.285
0.760925	371.941
0.770269	378.318
0.779121	384.488
0.78699	389.904
0.80612	399.789
0.815553	403.049
0.826395	406.857
0.836743	410.511
0.863875	415.463
0.869798	415.879
0.895471	417.013
0.906333	417.386
0.915714	417.629
0.945833	418.464
0.952745	418.806
0.975494	413.472
0.9794	420.733
0.984375	414.736
0.98828	422.29
-0.000602737	89.4169
-0.000602737	89.4169
-0.00750106	109.884
-0.000163402	16.4653
-0.000163402	16.4653