File: data/nitrogen-adsorption-isotherms/ja512137t-si_page_14_CPM-33d_ads.txt
# Relative Pressure (p/p0)    Quantity Adsorbed
-0.00298306	 34.6176
-0.00190017	18.8067
-0.00194715	6.10758
0.00643608	55.9309
0.0162637	57.2465
0.0284013	60.4115
0.0383307	62.5945
0.0491898	63.4712
0.0598123	64.5884
0.0708896	68.2805
0.0777066	65.0469
0.0855321	67.1123
0.0985604	65.6227
0.109797	65.3314
0.130162	66.3073
0.159085	66.6316
0.169662	67.4874
0.180526	67.5041
0.191763	67.1715
0.202254	67.6647
0.218054	68.1215
0.228918	68.1382
0.239785	67.735
0.250648	67.9791
0.262918	68.7901
0.27237	69.0445
0.283234	69.1121
0.295985	70.1344
0.303725	69.5696
0.315826	69.3911
0.336709	69.1033
0.348421	69.085
0.360024	69.389
0.370145	69.8307
0.381009	69.9492
0.393993	69.3912
0.401161	69.2824
0.43039	70.2794
0.442904	69.6796
0.451056	70.137
0.466931	70.7172
0.477795	70.7593
0.490394	69.7292
0.499395	70.2887
0.511798	70.9715
0.521249	71.3604
0.532115	71.199
0.547591	70.7173
0.557513	71.0017
0.568657	71.4586
0.590105	71.2117
0.600265	71.0967
0.615076	71.6571
0.625942	71.5466
0.636412	71.4227
0.648066	71.45
0.658254	71.2764
0.669395	72.1731
0.68026	72.1898
0.691975	71.4881
0.7168	72.8311
0.727664	72.8223
0.737708	72.3246
0.749527	72.4641
0.760997	72.9085
0.771118	73.4488
0.781982	73.4655
0.794056	73.1419
0.801559	73.0376
0.81556	73.9496
0.825928	74.4285
0.835874	74.5078
0.84828	74.6868
0.860738	75.3356
0.893202	78.0675
0.901993	80.1404
0.913287	82.6738
0.914739	78.5204
0.926149	78.9535
0.937109	79.469
0.947858	82.1781
0.95221	78.6593
0.962096	79.7313
0.973539	82.0031
0.981437	82.5037