File: data/nitrogen-adsorption-isotherms/ja808995d-si_page_20_4_ads.txt
# Relative Pressure (p/p0)    Quantity Adsorbed
0.994119	 388.203
0.960571	380.023
0.903959	375.533
0.855733	373.387
0.809605	368.845
0.759283	369.094
0.662832	361.225
0.662832	361.225
0.61251	360.281
0.560091	353.386
0.505576	352.463
0.45735	347.932
0.407028	344.604
0.365093	344.811
0.310578	339.119
0.258159	335.801
0.207837	331.28
0.157515	323.182
0.109289	318.651
0.0694512	309.309
0.0589674	297.437
0.0421934	273.672
0.0338064	260.598
0.0212258	204.618
0.0128388	149.81
-0.00393519	87.8886