File: data/nitrogen-adsorption-isotherms/ja808995d-si_page_20_1_des.txt
# Relative Pressure (p/p0)    Quantity Adsorbed
0.937507	 421.87
0.889281	420.916
0.836863	419.983
0.78025	416.686
0.738315	415.701
0.692187	415.929
0.637671	415.006
0.589446	411.668
0.539124	410.724
0.488802	409.78
0.434286	408.858
0.394448	406.67
0.344126	402.149
0.293804	400.013
0.243482	399.07
0.184773	394.591
0.142837	388.836
0.0988057	378.322
0.0484836	355.916
0.0275161	305.939
0.00654858	223.769
-0.00183843	172.538