File: data/nitrogen-adsorption-isotherms/ja808995d-si_page_17_2a_des.txt
# Relative Pressure (p/p0)    Quantity Adsorbed
0.943843	 267.635
0.892396	267.635
0.840923	263.485
0.789462	261.411
0.744473	265.56
0.689771	259.336
0.641486	251.037
0.583608	251.037
0.538565	246.888
0.487092	242.739
0.43886	242.739
0.397059	242.739
0.339155	238.589
0.294125	236.515
0.242652	232.365
0.194394	228.216
0.146135	224.066
0.104308	219.917
0.0527545	203.32
0.0300596	174.274
0.0136889	128.631
0.000680445	105.809