File: data/nitrogen-adsorption-isotherms/ja808995d-si_page_20_3_ads.txt
# Relative Pressure (p/p0)    Quantity Adsorbed
0.998313	 369.105
0.960571	363.329
0.910249	360.001
0.910249	360.001
0.859927	355.48
0.809605	354.537
0.713154	349.052
0.713154	349.052
0.654445	348.15
0.616704	347.144
0.560091	343.847
0.509769	339.326
0.463641	334.785
0.358803	330.534
0.358803	330.534
0.409125	333.862
0.314771	329.559
0.253965	325.09
0.209934	320.538
0.155418	316.038
0.109289	306.727
0.0778382	303.306
0.0568706	284.331
0.0400966	260.567
0.0317096	241.53
0.0254194	216.521
0.0191291	186.742
0.00864533	152.215
-0.00393519	92.6581
-0.00393519	22.3075