File: data/nitrogen-adsorption-isotherms/ja808995d-si_page_20_4_des.txt
# Relative Pressure (p/p0)    Quantity Adsorbed
0.937507	 380.137
0.887185	376.808
0.834766	373.491
0.784444	371.355
0.736218	366.824
0.6838	367.083
0.635574	360.167
0.583156	360.426
0.537027	357.077
0.492995	353.718
0.434286	350.431
0.383964	345.91
0.335739	342.571
0.28332	339.254
0.241385	335.884
0.186869	333.769
0.132354	325.691
0.0904187	316.36
0.0359031	264.164