File: data/nitrogen-adsorption-isotherms/ja808995d-si_page_17_2_des.txt
# Relative Pressure (p/p0)    Quantity Adsorbed
0.940695	 278.008
0.889234	275.934
0.837747	269.71
0.783098	271.784
0.741271	267.635
0.689811	265.56
0.638364	265.56
0.593308	259.336
0.541847	257.261
0.4904	257.261
0.438927	253.112
0.390682	251.037
0.33598	244.813
0.29095	242.739
0.239476	238.589
0.18803	238.589
0.139745	230.29
0.0947152	228.216
0.05605	215.768
0.0302064	197.095
0.0170511	151.452
-0.00246828	116.183