File: data/nitrogen-adsorption-isotherms/ja808995d-si_page_17_1a_ads.txt
# Relative Pressure (p/p0)    Quantity Adsorbed
0.996304	 425.311
0.95453	429.461
0.90307	427.386
0.854838	427.386
0.800123	419.087
0.761524	417.012
0.706862	417.012
0.648971	414.938
0.603928	410.788
0.552481	410.788
0.500981	402.49
0.452709	396.266
0.407666	392.116
0.352991	390.041
0.298302	385.892
0.246815	379.668
0.201758	373.444
0.163147	369.295
0.082654	352.697
0.0567704	327.801
0.0437352	300.83
0.0307267	278.008
0.0241224	251.037
0.0143961	238.589
0.00773839	203.32
0.000827207	128.631
-0.00281517	62.2407