File: data/nitrogen-adsorption-isotherms/ja808995d-si_page_17_1_des.txt
# Relative Pressure (p/p0)    Quantity Adsorbed
0.957732	 427.386
0.886979	425.311
0.832304	423.237
0.787248	417.012
0.739029	419.087
0.687583	419.087
0.636109	414.938
0.488172	410.788
0.436712	408.714
0.340209	402.49
0.288749	400.415
0.237262	394.191
0.189003	390.041
0.13753	385.892
0.0924737	379.668
0.0537284	354.772
0.0308735	300.83
0.00432282	172.199