File: data/nitrogen-adsorption-isotherms/ja809985t_page_2_UMCM-2_des.txt
# Relative Pressure (p/p0)    Quantity Adsorbed
0.963644	 1485.88
0.932796	1486.02
0.878797	1481.7
0.82994	1477.35
0.781068	1468.43
0.729655	1468.66
0.680813	1468.89
0.62937	1459.98
0.577972	1464.79
0.534226	1451.27
0.480213	1442.38
0.42623	1442.62
0.382499	1433.68
0.3259	1420.22
0.279585	1406.72
0.228142	1397.81
0.179256	1384.32
0.130207	1320.55
0.0780598	1092.21
0.0232828	845.608