File: data/nitrogen-adsorption-isotherms/ja809985t_page_2_UMCM-2_ads.txt
# Relative Pressure (p/p0)    Quantity Adsorbed
0.904504	 1481.58
0.855647	1477.23
0.806789	1472.88
0.763088	1473.08
0.706519	1468.77
0.652535	1469.02
0.606249	1464.66
0.557392	1460.31
0.503364	1446.84
0.457063	1437.91
0.408206	1433.56
0.354207	1429.24
0.300194	1420.34
0.26159	1406.8
0.205006	1397.92
0.156061	1366.14
0.101563	1206.39
0.0937629	1179
0.0858893	1128.75
0.0702597	1064.82
0.0624302	1028.29
0.0546301	1000.89
0.0415859	941.524
0.0362683	886.691
0.0231506	804.466
0.0147482	589.647
0.00938657	521.1
0.00915154	447.958
0.00634585	374.828
0.00352547	297.127
0.000793231	246.854
0.000675715	210.283
0.00054351	169.14
0.000411305	127.998
0.000352547	109.713
0.000293789	91.4272
0.000220342	68.5704
0.000176274	54.8563
0.000117516	36.5709
8.81368e-05	27.4282