File: data/nitrogen-adsorption-isotherms/ja808995d-si_page_17_2a_ads.txt
# Relative Pressure (p/p0)    Quantity Adsorbed
0.99533	 273.859
0.905258	267.635
0.905258	267.635
0.959934	269.71
0.853798	265.56
0.79588	259.336
0.757295	259.336
0.712265	257.261
0.654361	253.112
0.606129	253.112
0.557884	251.037
0.512855	248.963
0.451735	244.813
0.400275	242.739
0.355232	238.589
0.307001	238.589
0.249096	234.44
0.210498	232.365
0.159011	226.141
0.104321	221.992
0.0753559	217.842
0.0462836	197.095
0.033235	168.05
0.0202532	149.378
0.00716468	114.108
0.000480314	74.6888
-0.00300196	33.195