File: data/nitrogen-adsorption-isotherms/ja808995d-si_page_20_1_ads.txt
# Relative Pressure (p/p0)    Quantity Adsorbed
1.00041	 426.329
0.958474	425.344
0.914442	425.561
0.855733	422.275
0.807508	420.128
0.761379	417.972
0.713154	418.21
0.660735	417.277
0.610413	415.141
0.555898	410.641
0.511866	412.051
0.459447	409.926
0.413319	407.769
0.356706	405.664
0.308481	403.518
0.253965	400.21
0.20574	394.487
0.157515	388.763
0.0778382	377.234
0.0568706	364.221
0.0484836	343.992
0.0338064	321.409
0.0275161	286.861
0.0149356	242.805
0.00235507	186.825
0.00235507	121.244
-0.00393519	59.2714