File: data/nitrogen-adsorption-isotherms/ja808995d-si_page_17_1_ads.txt
# Relative Pressure (p/p0)    Quantity Adsorbed
0.960948	 427.386
1.00278	431.535
0.903057	425.311
0.809782	421.162
0.858027	423.237
0.835519	423.237
0.758322	419.087
0.735787	414.938
0.706848	414.938
0.658617	414.938
0.632893	414.938
0.607143	410.788
0.555696	410.788
0.536404	410.788
0.507465	410.788
0.488172	410.788
0.452802	410.788
0.353084	404.564
0.304812	398.34
0.253379	400.415
0.201892	394.191
0.156836	387.967
0.0763566	373.444
0.0634414	365.145
0.0440021	342.324
0.0243226	282.158
0.0111806	238.589
0.00765834	190.871
0.00109405	170.124
-0.00242825	122.407
0.000373577	58.0913