File: data/nitrogen-adsorption-isotherms/ja808995d-si_page_17_2_ads.txt
# Relative Pressure (p/p0)    Quantity Adsorbed
0.99537	 280.083
0.956785	280.083
0.914931	271.784
0.860269	271.784
0.812037	271.784
0.760564	267.635
0.709103	265.56
0.660845	261.411
0.606169	259.336
0.554709	257.261
0.503262	257.261
0.454991	251.037
0.406759	251.037
0.358501	246.888
0.310229	240.664
0.255554	238.589
0.197649	234.44
0.15262	232.365
0.104335	224.066
0.0624808	215.768
0.0430415	192.946
0.0202532	149.378
-0.006124	47.7178
-0.00317541	6.22407