File: data/nitrogen-adsorption-isotherms/ja808995d-si_page_17_1a_des.txt
# Relative Pressure (p/p0)    Quantity Adsorbed
0.880549	 425.311
0.880549	425.311
0.941655	427.386
0.838721	421.162
0.787274	421.162
0.742272	423.237
0.693987	414.938
0.64254	414.938
0.597524	414.938
0.539619	410.788
0.488172	410.788
0.446318	402.49
0.394831	396.266
0.343358	392.116
0.295086	385.892
0.246828	381.743
0.192126	375.519
0.143854	369.295
0.092327	356.846
0.0438153	313.278
0.0306467	265.56
0.0110472	217.842
0.00121413	188.797
0.00113407	176.349
0.00065376	101.66