File: data/nitrogen-adsorption-isotherms/ja808995d-si_page_20_3_des.txt
# Relative Pressure (p/p0)    Quantity Adsorbed
0.939603	 361.048
0.887185	360.115
0.836863	356.787
0.788637	355.833
0.742509	352.484
0.692187	352.733
0.637671	349.425
0.587349	348.482
0.54122	346.325
0.486705	344.21
0.434286	338.507
0.388158	336.35
0.331545	331.861
0.293804	328.47
0.243482	327.527
0.191063	324.209
0.142837	317.293
0.0967089	307.982
0.0442901	271.277
0.0296129	230.809
0.0107421	167.706
-0.00183843	136.766