File: data/nitrogen-adsorption-isotherms/ja903726m-si_page_9_MIL-125_ads.txt
# Relative Pressure (p/p0)    Quantity Adsorbed
0.30166	 444.163
0.25051	443.942
0.201079	438.533
0.164295	437.075
0.184412	438.461
0.14533	436.993
0.140157	436.97
0.124634	431.708
0.103368	430.318
0.0843996	427.638
0.0642801	423.655
0.0286328	410.514
0.010221	392.252