File: data/nitrogen-adsorption-isotherms/jacs.5b11034_page_4_Zn-bpdc-12a(bpy)_ads.txt
# Relative Pressure (p/p0)    Quantity Adsorbed
0.00528464	 2.6384
0.0322163	3.76217
0.0591123	4.53915
0.085994	5.17647
0.112867	5.72959
0.139733	6.21436
0.166596	6.67593
0.193449	7.02645
0.220299	7.35866
0.245931	7.6964
0.278879	8.06273
0.300843	8.29583
0.349644	8.72306
0.398444	9.15156
0.450918	9.73463
0.500957	10.3564
0.549793	11.1333
0.601088	12.1097
0.649965	13.2781
0.70132	14.8443
0.740484	16.3839
0.769877	17.7354
0.806109	19.2177
0.833778	20.397
0.861437	21.4876
0.887384	22.5162
0.913106	23.7259
0.937069	25.0796
0.956031	26.2866
0.969613	27.9755
0.982943	29.8497
0.990777	32.2794