File: data/nitrogen-adsorption-isotherms/jacs.6b04608-si_page_18_NPF-201_des.txt
# Relative Pressure (p/p0)    Quantity Adsorbed
0.970802	 144.717
0.960938	144.722
0.947128	144.731
0.929372	145.153
0.929372	145.153
0.917535	145.572
0.90767	145.578
0.899779	145.583
0.878078	145.596
0.864268	145.192
0.807055	146.462
0.799164	146.466
0.773516	146.482
0.753788	146.493
0.753788	146.493
0.724195	145.687
0.714331	146.517
0.700521	146.525
0.674874	146.54
0.674874	146.54
0.635417	146.975
0.635417	146.975
0.617661	147.81
0.605824	146.581
0.59596	146.587
0.572285	146.601
0.558475	146.609
0.542693	147.03
0.528883	147.039
0.515073	147.047
0.505208	147.053
0.489426	147.062
0.463778	146.665
0.449968	147.085
0.442077	147.09
0.442077	147.09
0.420376	147.103
0.404593	147.112
0.382891	146.713
0.367109	146.723
0.34738	146.322
0.329624	145.921
0.294113	144.706
0.294113	144.706
0.260574	143.49
0.260574	143.49
0.274384	145.13
0.248737	143.497
0.234927	143.505
0.217172	143.104
0.20928	142.697
0.199416	142.702
0.191525	142.295
0.173769	140.658
0.157986	140.255
0.142203	139.853
0.106692	137.402
0.120502	138.63
0.0889362	135.353
0.0731534	133.714
0.0613163	132.073
0.0455335	130.435
0.0317235	126.324
0.0179135	120.976
0.0179135	120.976
0.00804924	115.215