File: data/nitrogen-adsorption-isotherms/jacs.6b03263-si_page_18_PCN-133-20%_ads.txt
# Relative Pressure (p/p0)    Quantity Adsorbed
-0.000230188	 18.4851
0.00543573	51.0845
0.00410674	41.9951
0.00658752	20.5637
0.00662978	27.2061
0.0132435	64.5383
0.0228281	69.8607
0.0340171	72.112
0.045397	73.6823
0.0560034	74.7987
0.0695159	75.6414
0.0790862	76.1621
0.0922097	76.6377
0.104538	77.3366
0.114305	77.6767
0.129311	78.0739
0.138537	78.6241
0.152082	78.5669
0.162706	78.9242
0.174236	79.3404
0.187263	79.7677
0.195957	80.1365
0.209931	80.1455
0.219218	80.7108
0.232513	80.7468
0.243952	81.0338
0.254856	81.3001
0.267881	81.5339
0.276089	81.5913
0.290439	81.7995
0.300096	82.2286
0.312907	82.1348
0.325011	82.2597
0.33503	82.6078
0.35127	82.4129
0.360555	82.847
0.374039	82.6088
0.384607	82.5416
0.395422	82.9497
0.409949	82.8899
0.418746	83.3989
0.432819	83.2317
0.442759	83.1812
0.455035	83.2152
0.468434	83.107
0.477408	83.6354
0.490566	83.6932
0.499356	83.9426
0.513428	83.4742
0.523369	83.7273
0.535647	83.9416
0.549045	83.7417
0.557509	84.1016
0.571175	84.0152
0.579966	84.3255
0.593885	84.0134
0.604322	84.2232
0.616255	84.0479
0.629291	83.7322
0.638118	84.3991
0.651778	84.1126
0.66079	84.6319
0.674495	84.4801
0.684932	84.7079
0.696865	84.5921
0.709904	84.6825
0.718394	85.0016
0.732394	84.7704
0.74156	84.9507
0.755103	84.5932
0.765748	84.6459
0.777003	84.8292
0.79311	84.6353
0.802276	84.8559
0.815822	84.9171
0.826465	84.6475
0.837722	85.1889
0.853773	85.2369
0.863056	85.2492
0.87635	85.1749
0.888674	85.1824
0.898439	85.2261
0.913443	85.2382
0.922667	85.5084
0.936021	85.1978
0.947153	85.3946
0.958113	85.788