File: data/nitrogen-adsorption-isotherms/jacs.5b11034_page_4_Zn-bpdc-8a(bpy)_ads.txt
# Relative Pressure (p/p0)    Quantity Adsorbed
0.147086	 1.86362
0.176284	2.10603
0.203669	2.11149
0.236222	2.18789
0.263036	2.16769
0.286978	2.53744
0.303897	2.43099
0.351477	2.84446
0.402661	2.74396
0.476272	2.63165
0.496474	2.32253
0.550091	2.18144
0.618389	2.55871
0.65007	2.44839
0.698845	2.63237
0.740309	2.83965
0.773242	3.0592
0.840413	4.32604
0.873343	4.51712
0.900223	5.13736
0.92715	6.21458
0.947994	7.40686
0.961249	8.88235
0.973933	10.7238
0.987939	16.5394
0.985189	13.5039
0.0301993	0.781387
0.0900525	1.30492