File: data/nitrogen-adsorption-isotherms/jacs.6b08724-si_page_53_(Mn1.77Ni1.23O)2(TCPP-Ni)3_ads.txt
# Relative Pressure (p/p0)    Quantity Adsorbed
0.00296241	 115.423
0.00412335	105.242
0.00420628	58.4909
0.00284631	33.1768
0.00862201	152.583
0.00831105	139.297
0.00753363	94.0655
0.00760619	47.0594
0.0126939	193.915
0.0107988	180.493
0.00862201	108.361
0.00818666	80.2842
0.0103634	170.365
0.00949272	164.75
0.0177645	208.816
0.0251655	234.085
0.0298093	246.642
0.0373554	254.909
0.0442815	264.828
0.0555677	292.034
0.0543342	273.497
0.0612999	284.751
0.0651092	292.747
0.0712508	289.192
0.077719	309.615
0.0792499	296.993
0.0863639	306.206
0.0959699	311.383
0.111975	325.539
0.11942	334.032
0.127949	342.693
0.137342	353.164
0.147152	360.214
0.151128	368.341
0.160829	376.463
0.17053	397.978
0.171154	386.264
0.180118	401.589
0.176233	392.41
0.189642	418.388
0.186682	406.604
0.200323	478.825
0.197566	423.412
0.200077	434.886
0.201876	547.981
0.202824	451.912
0.203938	579.256
0.204531	503.299
0.204677	466.814
0.207268	481.117
0.206708	474.77
0.209804	589.446
0.204967	441.077
0.211062	551.812
0.210191	543.559
0.207579	451.372
0.212411	576.737
0.218971	595.242
0.224703	599.635
0.232829	601.968
0.245569	610.797
0.241537	603.613
0.255274	605.485
0.264175	607.371
0.274521	617.991
0.271141	610.102
0.284143	620.366
0.281589	612.682
0.293725	621.62
0.290732	613.986
0.302486	615.922
0.312064	616.39
0.317724	619.368
0.394302	632.681
0.41829	637.15
0.495305	642.017
0.514068	643.531
0.545806	646.275
0.554308	649.671
0.564134	648.615
0.595436	650.276
0.665572	658.165
0.697498	657.383
0.705932	654.106
0.814898	670.047
0.994709	699.526
0.897707	680.569
0.844797	667.299
0.747795	661.611
0.798942	669.194
0.64903	654.028
0.449735	638.863