File: data/nitrogen-adsorption-isotherms/jacs.6b03263-si_page_12_PCN-133-65%DCDPS_ads.txt
# Relative Pressure (p/p0)    Quantity Adsorbed
-0.00090209	 175.406
-0.00090209	156.193
-0.00056774	135.733
-0.00056774	114.251
-0.000847957	92.1841
-0.000847957	69.128
-0.00102628	45.4257
-0.00141427	22.5941
0.000595586	242.814
0.000272912	216.69
0.000272912	193.636
0.00203064	287.102
0.00169629	265.693
0.00319396	306.705
0.00729904	323.817
0.0134431	333.606
0.00867943	244.457
0.00997862	289.082
0.00932902	267.346
0.0193092	340.812
0.0112778	308.445
0.0445218	354.922
0.0725021	362.766
0.0900411	366.927
0.105174	370.123
0.115912	371.653
0.132332	373.509
0.14968	376.122
0.164936	378.152
0.176175	379.702
0.191865	380.618
0.207802	382.175
0.219857	383.961
0.233196	384.72
0.249259	385.379
0.26462	387.133
0.276212	388.119
0.291673	388.491
0.30948	389.843
0.324924	390.741
0.335534	391.579
0.351436	391.661
0.369243	392.988
0.384686	393.726
0.395438	394.334
0.411022	394.779
0.428236	395.483
0.442727	396.268
0.454041	396.606
0.470121	396.797
0.486281	397.047
0.497391	398.143
0.511628	398.384
0.528274	398.725
0.542538	399.329
0.553148	399.814
0.570082	399.616
0.586319	399.935
0.59733	400.818
0.611243	400.335
0.627905	401.043
0.642424	401.618
0.654116	401.852
0.670196	401.819
0.685928	402.184
0.697368	402.776
0.711216	402.627
0.728349	402.653
0.742839	403.259
0.753814	403.611
0.769775	403.218
0.786352	403.614
0.797807	404.721
0.811114	404.435
0.827856	404.458
0.843408	404.679
0.853852	405.297
0.870271	404.871
0.888077	405.035
0.902621	405.656
0.913614	405.98
0.929575	405.526
0.945694	405.987
0.953932	406.523