File: data/nitrogen-adsorption-isotherms/jacs.5b00365-si_page_43_MUF-77-octyl_ads.txt
# Relative Pressure (p/p0)    Quantity Adsorbed
-0.00181823	 78.304
-0.00061787	205.025
-0.00044726	193.383
-0.000715361	177.89
0.000844504	245.328
0.000454538	148.659
0.00256889	296.563
0.00409654	309.155
0.00564596	319.943
0.00864383	330.784
0.00211189	258.848
0.00211189	230.021
0.00211189	220.413
0.0072302	79.5464
0.0310344	361.714
0.0459831	368.036
0.0620692	373.392
0.0781553	377.697
0.0942414	381.108
0.110328	384.002
0.126414	386.44
0.1425	388.481
0.158586	390.284
0.174672	391.71
0.190758	393.155
0.205479	395.112
0.222016	395.697
0.239473	397.146
0.256473	398.021
0.270579	399.711
0.286021	400.006
0.302447	400.656
0.31506	401.648
0.342395	402.649
0.355894	402.831
0.371361	404.185
0.397867	404.747
0.407189	406.171
0.434974	406.752
0.451061	405.733
0.46276	406.671
0.49326	407.687
0.504291	407.527
0.524179	409.201
0.542276	409.557
0.554987	409.359
0.570975	410.879
0.599345	410.517
0.614846	411.688
0.628252	411.668
0.647994	411.523
0.659303	412.845
0.684065	413.333
0.699922	412.282
0.71575	414.12
0.731836	414.136
0.748549	414.111
0.75889	415.079
0.79969	414.414
0.815192	415.681
0.847991	415.805
0.86345	416.602
0.879536	416.539
0.896987	415.756
0.906834	416.28
0.935106	418.164
0.951192	417.143
0.959967	418.167
0.989042	417.199
0.999451	417.235