File: data/nitrogen-adsorption-isotherms/jacs.6b02030-si_page_2_UTSA-74a_des.txt
# Relative Pressure (p/p0)    Quantity Adsorbed
0.972222	 253.087
0.921081	252.88
0.939922	254.823
0.88609	250.873
0.88609	250.873
0.848407	252.587
0.816107	251.524
0.767657	250.395
0.729974	250.243
0.686908	249.136
0.654608	247.139
0.60885	246.021
0.525409	244.751
0.560401	245.826
0.485034	238.055
0.44466	235.092
0.425818	233.149
0.401593	231.185
0.38006	231.098
0.36391	231.033
0.339686	230.935
0.320844	229.926
0.302003	227.983
0.267011	227.842
0.23202	225.834
0.197028	224.759
0.164729	222.762
0.132429	222.632
0.100129	221.568
0.0732127	220.526
0.0166882	211.898
-0.00215332	205.288
-0.00484496	191.277