File: data/nitrogen-adsorption-isotherms/jacs.6b08724-si_page_50_(Ni3O)2(TCPP-Co)3_des.txt
# Relative Pressure (p/p0)    Quantity Adsorbed
0.895873	 830.652
0.860663	824.926
0.812667	826.95
0.758257	821.261
0.657454	819.524
0.657454	819.524
0.711853	819.419
0.611037	809.957
0.55984	811.987
0.507023	802.433
0.46542	800.582
0.41102	800.687
0.3566	789.204
0.313389	783.493
0.262179	777.798
0.217359	766.297
0.206152	762.456
0.199752	762.468
0.198135	752.815
0.19489	727.714
0.194914	741.233
0.189943	644.676
0.183443	588.68
0.157713	515.339
0.157713	515.339
0.136861	486.409
0.11761	457.477
0.0871413	418.909
0.0695071	399.63
0.0438419	362.984
0.0229939	335.985
0.0229939	335.985
0.014939	305.1
0.00848409	274.211