File: data/nitrogen-adsorption-isotherms/jacs.5b11034_page_4_Zn-bpdc-11a(bpe)_ads.txt
# Relative Pressure (p/p0)    Quantity Adsorbed
0.0425518	 4.89149
0.0748236	6.27213
0.126863	7.69019
0.247222	10.3983
0.404035	13.0957
0.448999	13.2262
0.497624	14.1031
0.551098	14.4374
0.597291	15.2169
0.650774	15.9535
0.699401	16.9311
0.740743	18.1526
0.771141	19.0304
0.803328	20.5606
0.830225	21.9653
0.855955	23.7047
0.883071	25.391
0.912303	28.5765
0.934234	31.2816
0.946509	37.0483
0.959453	43.0986
0.967418	48.7992
0.991137	78.3321
0.989639	65.1151
0.985796	55.8653
0.991493	95.023