File: data/nitrogen-adsorption-isotherms/jacs.5b11034_page_4_MOF-2_ads.txt
# Relative Pressure (p/p0)    Quantity Adsorbed
0.0173487	 0.692515
0.0440946	1.26812
0.0708491	2.2488
0.0975804	2.14411
0.124317	2.2947
0.151055	2.50974
0.177793	2.7149
0.204538	3.2458
0.231278	3.53138
0.258003	3.16
0.284749	3.72137
0.302961	3.01739
0.352794	3.51684
0.405544	4.08046
0.430918	3.84121
0.45882	3.67035
0.488478	3.10153
0.512498	3.40993
0.549639	2.99135
0.617684	2.83448
0.668712	2.39856
0.721689	2.22747
0.748647	2.63605
0.775653	2.7385
0.802371	2.02327
0.829361	2.61254
0.856019	0.980451
0.879094	1.73116
0.909313	2.37318
0.936353	1.5207
0.96549	1.23472
0.987076	2.00453