File: data/nitrogen-adsorption-isotherms/jacs.6b03263-si_page_18_PCN-133-65%_ads.txt
# Relative Pressure (p/p0)    Quantity Adsorbed
-0.00284284	 157.097
-0.00284284	137.119
-0.00303196	70.1819
-0.00303196	47.1204
-0.00303196	23.3897
-0.00180129	266.027
-0.00164902	243.323
-0.00164902	217.328
-0.00164902	176.232
-0.00176475	114.411
-0.000665339	287.387
0.00147561	306.592
0.00460024	321.64
0.00530513	23.6898
0.00989062	332.761
0.0170525	340.376
0.0125959	321.125
0.0272249	347.01
0.024621	338.808
0.0381611	352.042
0.0504643	358.526
0.0609263	360.03
0.0722841	362.833
0.0856715	366.318
0.0942819	366.941
0.108755	370.619
0.118039	371.436
0.130858	373.65
0.142923	375.138
0.153772	378.659
0.152731	373.572
0.168232	378.167
0.177407	378.908
0.190474	380.48
0.20177	381.407
0.212892	382.351
0.225917	383.854
0.235135	384.403
0.248321	385.599
0.25784	386.096
0.270673	386.897
0.28249	387.685
0.292893	389.67
0.292819	385.643
0.307798	389.832
0.317156	390.01
0.330041	390.739
0.34101	391.063
0.352459	391.657
0.365847	392.599
0.374518	392.771
0.387997	393.538
0.397173	393.656
0.41024	394.598
0.42193	394.922
0.432438	395.127
0.447365	395.908
0.456723	396.209
0.469608	396.697
0.480892	396.825
0.492026	397.346
0.50507	397.918
0.513691	397.937
0.527455	398.41
0.53674	398.622
0.550028	398.832
0.560776	399.076
0.572225	399.478
0.585212	399.99
0.594284	400.083
0.607654	400.219
0.617185	400.525
0.630006	400.7
0.641499	400.792
0.652424	401.068
0.665448	401.693
0.674483	401.763
0.687646	401.825
0.697736	401.943
0.710205	402.125
0.721698	402.443
0.732402	402.755
0.745667	402.944
0.754682	403.124
0.768052	403.174
0.777806	403.606
0.790156	403.465
0.802093	403.513
0.812601	403.885
0.827529	404.035
0.837095	404.326
0.849772	404.347
0.861068	404.656
0.87219	404.572
0.885145	404.721
0.894249	404.996
0.907619	405.109
0.916904	405.357
0.930191	405.239
0.941254	405.364
0.952168	405.905
0.958886	406.733