File: data/nitrogen-adsorption-isotherms/jacs.5b00365-si_page_41_MUF-77-ethyl_ads.txt
# Relative Pressure (p/p0)    Quantity Adsorbed
-0.000631981	 76.8089
0.00155421	290.988
0.00144797	185.913
-0.000792004	160.065
0.00100679	148.25
0.000706912	125.509
0.00371548	443.974
0.00324108	381.909
0.00522407	486.645
0.00689129	517.784
0.0120412	582.392
0.00295491	344.979
0.00290286	323.895
0.0120831	606.783
0.016294	628.487
0.0192539	653.29
0.0222089	680.337
0.0264211	705.755
0.0320467	734.841
0.0384377	764.479
0.0442242	791.577
0.0517367	816.107
0.0589084	838.643
0.0661383	861.863
0.074222	884.142
0.0817641	909.883
0.0965104	922.471
0.11262	932.063
0.128723	938.954
0.144822	943.885
0.159272	947.869
0.177015	952.528
0.191973	956.061
0.209212	962.564
0.224673	963.286
0.241847	964.668
0.257797	967.911
0.273579	971.746
0.288654	972.224
0.303362	973.149
0.331355	976.637
0.349951	977.656
0.363536	980.335
0.393523	983.373
0.406686	984.274
0.447455	986.477
0.459544	985.883
0.476891	988.609
0.494337	986.812
0.504884	988.152
0.547094	992.495
0.557331	992.383
0.597401	992.832
0.612907	994.886
0.628993	994.851
0.645083	996.384
0.656052	996.855
0.684573	998.864
0.700654	996.82
0.709434	998.945
0.748921	1000.27
0.765009	1001.13
0.781095	1001.09
0.797806	1000.19
0.807421	1002.46
0.850412	1001.32
0.860071	1004.22
0.898718	1003.6
0.908332	1005.34
0.949588	1003.83
0.959516	1005.5
0.989894	1002.94
1.00046	1003.72