File: data/nitrogen-adsorption-isotherms/jacs.5b00365-si_page_43_MUF-77-decyl_ads.txt
# Relative Pressure (p/p0)    Quantity Adsorbed
0.00881876	 209.324
0.0106318	218.308
0.0130155	226.231
0.0144286	232.741
0.0185575	240.613
0.0220737	248.167
0.0270079	254.336
0.0326782	259.958
0.0439811	265.452
0.0577706	271.395
0.0729957	274.935
0.0888701	277.86
0.103392	280.666
0.120058	282.64
0.137616	285.07
0.153715	286.736
0.167431	287.716
0.182994	289.028
0.201344	290.787
0.214867	291.592
0.23174	292.923
0.247615	293.818
0.263489	294.69
0.279364	295.515
0.295799	295.756
0.311112	297
0.326987	297.426
0.342861	298.016
0.358736	298.583
0.37461	298.986
0.391722	299.459
0.405012	299.482
0.422234	300.475
0.438108	300.971
0.453982	301.585
0.469857	301.799
0.485731	302.319
0.501045	301.923
0.51748	303.148
0.533355	303.268
0.549229	303.882
0.565104	303.98
0.580978	304.711
0.598205	304.422
0.61417	305.373
0.630045	305.447
0.645919	305.896
0.661793	306.158
0.677668	306.208
0.694779	306.306
0.708064	306.188
0.725291	307.158
0.741166	307.443
0.75704	307.634
0.772915	307.849
0.788789	308.298
0.804102	307.709
0.820538	308.587
0.836412	309.036
0.852287	309.04
0.868161	309.02
0.884036	309.657
0.901184	309.13
0.915785	309.875
0.931659	310.489
0.948771	310.246
0.962061	310.296
0.979282	311.251
0.994596	310.668