File: data/nitrogen-adsorption-isotherms/jacs.5b11034_page_4_Zn-bpdc-10a(bpe)_des.txt
# Relative Pressure (p/p0)    Quantity Adsorbed
0.0978721	 15.7954
0.124604	15.7125
0.152654	16.0946
0.178309	17.3731
0.3527	19.8317
0.484426	22.0026
0.512182	22.4655
0.595434	23.1065
0.619567	22.7197
0.647335	25.6078
0.67432	24.7572
0.728573	28.6613
0.754366	30.1649
0.778714	32.2434
0.807895	33.0701
0.833769	35.465
0.861481	38.6077
0.877768	42.5813
0.90104	41.7223
0.915677	46.4649
0.945335	50.3446
0.961588	60.3051
0.963876	53.6533
0.975739	68.5962
0.998721	117.584
0.979046	96.807
0.0253168	12.2669
0.0253168	12.2669
0.0503796	15.2067
0.073465	15.6018
0.250483	20.0462
0.275482	20.0143
0.300482	19.9825
0.350489	20.3433
0.373584	21.163
0.392823	21.563
0.460138	21.9018
0.500549	23.1239
0.527471	23.0896
0.548661	24.7608
0.604437	25.1142
0.223524	18.3824
0.196602	18.4167
0.0099326	12.2865