File: data/nitrogen-adsorption-isotherms/jacs.5b11034_page_4_Zn-bpdc-12a(bpe)_des.txt
# Relative Pressure (p/p0)    Quantity Adsorbed
0.986276	 165.147
0.981976	143.926
0.981677	129.917
0.981677	129.917
0.979826	133.315
0.979908	137.136
0.977795	128.224
0.97579	124.405
0.975627	116.764
0.975627	116.764
0.971654	110.826
0.967735	107.435
0.96768	104.887
0.965694	101.918
0.961721	95.98
0.959771	94.7089
0.940277	82.4224
0.943978	75.6252
0.943978	75.6252
0.943951	74.3517
0.940042	71.3849
0.93029	65.0294
0.91868	61.648
0.907033	56.5685
0.895386	51.489
0.878015	48.5394
0.866377	43.8844
0.831645	38.4098
0.78922	32.9449
0.810419	35.0406
0.775714	30.8395
0.750696	30.0223
0.712136	25.4016
0.712136	25.4016
0.667834	22.0618
0.667834	22.0618
0.631287	21.6838
0.612012	19.5857
0.588926	19.1906
0.55238	18.8126
0.527362	17.9954
0.515824	18.0101
0.515824	18.0101
0.475413	16.788
0.454233	15.5414
0.454233	15.5414
0.406139	14.7536
0.406139	14.7536
0.388832	14.7756
0.359959	13.5388
0.359959	13.5388
0.336874	13.1437
0.315712	12.7461
0.298414	13.1927
0.258003	11.9706
0.258003	11.9706
0.215696	12.0244
0.215696	12.0244
0.177199	10.3754
0.156046	10.4023
0.129115	10.0121
0.129115	10.0121
0.0964143	9.62918
0.0675236	7.54334
0.0675236	7.54334
0.0482752	6.71879
0.375371	14.7928
0.436944	16.4125