File: data/nitrogen-adsorption-isotherms/jacs.6b03263_page_5_PCN-134-10%_ads.txt
# Relative Pressure (p/p0)    Quantity Adsorbed
-0.000363049	 95.6867
0.000482929	235.957
0.0341866	285.24
0.050619	290.908
0.065979	295.428
0.0826582	301.596
0.0955539	303.516
0.111584	304.991
0.129266	307.798
0.145656	310.353
0.159703	312.239
0.174574	313.376
0.19117	314.529
0.208655	315.666
0.224689	317.737
0.23915	318.592
0.25361	319.737
0.270514	320.291
0.287337	321.141
0.303931	322.555
0.317385	322.973
0.332733	324.021
0.349558	324.405
0.366739	325.125
0.382658	327.075
0.396566	327.189
0.41178	327.101
0.429418	327.389
0.446013	328.939
0.461145	329.662
0.474941	330.637
0.490978	330.062
0.508665	331.248
0.525052	332.523
0.539109	333.191
0.553985	332.965
0.570381	333.574
0.58807	333.735
0.6041	335.341
0.618157	336.123
0.633032	335.844
0.649936	336.362
0.667347	336.869
0.683037	338.585
0.696383	338.996
0.71208	338.722
0.729797	338.966
0.746395	339.754
0.761265	340.96
0.775318	341.166
0.791714	341.634
0.80413	292.248
0.808844	342.289
0.813473	292.342
0.825434	343.345
0.839902	343.998
0.854365	344.331
0.871269	344.552
0.888092	345.646
0.904479	347.149
0.918276	347.768
0.933488	348.481
0.950309	350.049
0.95918	352.345