File: data/nitrogen-adsorption-isotherms/jacs.5b11034_page_4_MOF-2_des.txt
# Relative Pressure (p/p0)    Quantity Adsorbed
0.984752	 3.828
0.973214	3.84269
0.948205	3.45001
0.921265	2.63527
0.898189	2.66466
0.878958	2.68915
0.853959	2.72099
0.823182	2.33566
0.800096	1.94053
0.782798	2.38709
0.750116	2.85324
0.719338	2.46791
0.680869	2.09238
0.632811	3.00264
0.534701	1.42948
0.482788	1.92012
0.482788	1.92012
0.455866	1.95441
0.419328	2.00094
0.419328	2.00094
0.369339	2.48914
0.348176	2.09156
0.332792	2.11115
0.282757	0.476765
0.255844	0.93557
0.255844	0.93557
0.182778	1.45315
0.155847	1.06292
0.105821	-0.146948
0.0365828	-0.483296
0.0365828	-0.483296