File: data/nitrogen-adsorption-isotherms/jacs.5b11034_page_4_Zn-bpdc-8a(bpy)_des.txt
# Relative Pressure (p/p0)    Quantity Adsorbed
0.976704	 13.3024
0.955102	9.58699
0.933654	7.35885
0.918145	6.6172
0.894877	5.45161
0.838838	4.50267
0.811822	4.39988
0.798286	4.08291
0.740351	3.4529
0.740351	3.4529
0.649623	2.82707
0.649623	2.82707
0.603316	2.72674
0.551244	2.83961
0.504916	2.52682
0.504916	2.52682
0.448964	2.42772
0.448964	2.42772
0.402647	2.22116
0.371783	2.22509
0.352482	2.12132
0.352482	2.12132
0.331263	2.12403
0.257962	2.13337
0.275323	2.13116
0.275323	2.13116
0.203961	2.24649
0.203961	2.24649
0.180813	2.24944
0.155704	1.93394
0.128698	1.93739