File: data/nitrogen-adsorption-isotherms/jacs.6b03263_page_5_PCN-134-18%_ads.txt
# Relative Pressure (p/p0)    Quantity Adsorbed
0.000420005	 174.706
-0.000322008	136.411
-0.000260715	116.92
0.00346257	189.917
0.00553694	253.996
0.00871666	331.161
0.00780361	295.018
0.00643431	273.36
0.00846918	311.91
0.0140983	388.325
0.0104404	370.69
0.0160539	413.981
0.0214576	447.79
0.0167352	425.868
0.0268848	474.109
0.042079	492.634
0.0345445	476.173
0.0517291	496.556
0.0833016	512.542
0.0926364	515.155
0.124785	522.619
0.140594	526.433
0.153778	527.127
0.170481	529.358
0.187854	531.047
0.20388	533.9
0.218344	535.568
0.232804	537.025
0.249401	537.959
0.26688	540.734
0.282909	542.674
0.296143	543.928
0.311919	543.678
0.329247	545.165
0.346071	545.806
0.361952	547.098
0.375078	547.743
0.390961	548.226
0.408292	549.073
0.425196	549.376
0.439928	549.929
0.453824	550.905
0.470518	550.58
0.487848	551.656
0.504126	552.92
0.518703	553.693
0.533167	553.729
0.549768	553.246
0.567254	554.161
0.583284	555.588
0.596521	555.776
0.612216	556.157
0.62912	556.518
0.646453	556.673
0.662223	558.221
0.67546	558.393
0.691345	558.275
0.708676	559.145
0.725572	560.207
0.741033	561.515
0.754507	561.516
0.770901	561.121
0.788031	561.405
0.804627	562.558
0.818678	563.443
0.833549	564.362
0.850454	564.578
0.867637	564.361
0.883667	566.074
0.897464	566.66
0.912598	567.063
0.929754	567.759
0.946831	568.737
0.956334	571.719