File: data/nitrogen-adsorption-isotherms/jacs.5b11034-si_page_17_Cu-bpdc-8a(bpy)_ads.txt
# Relative Pressure (p/p0)    Quantity Adsorbed
0.99211	 400.662
0.990058	485.099
0.982013	355.96
0.976862	312.914
0.969258	273.179
0.959218	240.066
0.959218	240.066
0.94675	215.232
0.946734	211.921
0.94424	206.954
0.94424	206.954
0.936775	195.364
0.926883	192.053
0.919442	185.43
0.902109	175.497
0.902109	175.497
0.897147	170.53
0.889731	168.874
0.879838	165.563
0.86746	158.94
0.852637	157.285
0.827905	149.007
0.815551	147.351
0.778465	137.417
0.778465	137.417
0.743872	132.45
0.706827	130.795
0.603082	122.517
0.603082	122.517
0.499338	114.238
0.499338	114.238
0.452424	114.238
0.405494	110.927
0.353642	110.927
0.299297	105.96
0.28942	105.96
0.279536	104.305
0.244968	104.305
0.225206	102.649
0.205453	102.649
0.180737	97.6821
0.153577	97.6821
0.143692	96.0265
0.1264	94.3709
0.111585	94.3709
0.0992151	89.404
0.0769847	87.7483
0.0473387	84.4371
0.0127136	72.8477
0.000286158	56.2914
0.000286158	56.2914
0.000212575	41.3907
0.000106287	19.8675
0.800695	139.073