File: data/nitrogen-adsorption-isotherms/jacs.5b00450_page_7_Y-pek-MOF-1 (2)_des.txt
# Relative Pressure (p/p0)    Quantity Adsorbed
0.955056	 454.214
0.910813	456.31
0.846118	453.166
0.800162	453.166
0.754206	453.166
0.704841	452.117
0.645263	451.069
0.595898	450.021
0.548229	447.925
0.503964	445.828
0.458003	444.78
0.410345	444.78
0.352453	440.587
0.304785	438.491
0.246893	434.298
0.206022	430.105
0.163454	426.96
0.110658	420.671
0.0850894	413.333
0.0629196	404.948
0.0526804	399.706