File: data/nitrogen-adsorption-isotherms/jacs.6b00695-si_page_20_CIAC-115_des.txt
# Relative Pressure (p/p0)    Quantity Adsorbed
0.977754	 309.56
0.952078	306.991
0.891031	304.468
0.891031	304.468
0.865307	304.502
0.846014	304.527
0.817098	303.263
0.79459	303.293
0.743189	300.757
0.695029	296.917
0.64682	295.678
0.592204	293.147
0.540851	288.009
0.492666	285.47
0.444553	279.027
0.396416	273.885
0.351519	267.438
0.293783	259.706
0.242502	250.665
0.191293	237.721
0.136892	223.479