File: data/nitrogen-adsorption-isotherms/jacs.5b00450_page_7_Y-pek-MOF-1 (2)_ads.txt
# Relative Pressure (p/p0)    Quantity Adsorbed
0.955066	 456.31
0.912515	456.31
0.851229	454.214
0.808683	455.262
0.75761	453.166
0.715053	452.117
0.652071	451.069
0.60611	450.021
0.541421	447.925
0.498869	447.925
0.4512	445.828
0.406941	444.78
0.347353	441.635
0.301381	438.491
0.262217	435.346
0.199224	432.201
0.161757	428.008
0.10895	419.623
0.0936158	416.478
0.0816799	412.285
0.0714514	409.14
0.0646163	403.899
0.050973	398.658
0.0441273	391.321
0.040691	385.031
0.0372441	376.646
0.0320897	367.212
0.0303234	354.633
0.0268764	346.247
0.0251583	343.103
0.0234295	337.862
0.0234027	332.621
0.0199611	325.283
0.0182216	317.945
0.0181734	308.512
0.0181359	301.174
0.0180824	290.692
0.0180396	282.306
0.0128799	271.824
0.0128638	268.679
0.011135	263.438
0.00941148	259.245
0.00937937	252.956
0.00934725	246.667
0.00932584	242.474
0.00928838	235.136
0.00582536	223.606
0.00577184	213.124
0.00573972	206.834
0.00392525	184.822
0.00206261	153.375
0.00184316	110.398
0.00167723	77.9036
-0.000206818	42.2642
-0.00210693	3.48008