File: data/nitrogen-adsorption-isotherms/jacs.5b00450_page_7_Tb-pek-MOF-1 (1)_des.txt
# Relative Pressure (p/p0)    Quantity Adsorbed
0.952942	 373.501
0.903576	372.453
0.852498	369.308
0.798026	368.26
0.750363	367.212
0.701003	367.212
0.653334	365.115
0.600565	364.067
0.552902	363.019
0.503531	360.922
0.449059	359.874
0.403087	356.73
0.348616	355.681
0.300947	353.585
0.200493	347.296
0.0983259	338.91