File: data/nitrogen-adsorption-isotherms/jacs.6b00695-si_page_20_CIAC-115_ads.txt
# Relative Pressure (p/p0)    Quantity Adsorbed
-0.00757402	 106.27
-0.00689408	92.2959
-0.00891321	81.79
-0.00664953	69.382
-0.00840796	58.3288
-0.00646497	45.9101
-0.00658027	33.5412
-0.00656317	21.9503
-0.00627802	10.1453
-0.00644636	117.001
0.00162034	140.24
0.0153464	140.178
0.0249521	156.195
0.0556887	166.604
0.0732861	169.559
0.0913784	173.278
0.128391	179.363
0.146902	182.188
0.165417	184.746
0.183938	187.004
0.238568	194.013
0.289088	199.722
0.339612	205.189
0.388457	210.24
0.437292	215.811
0.487807	221.769
0.536939	227.857
0.587135	234.516
0.636252	241.375
0.686084	248.402
0.73524	255.952
0.785721	263.763
0.803485	265.86
0.821506	267.815
0.8405	271.846
0.859012	274.615
0.877521	277.5
0.896024	280.727
0.91451	284.876
0.933022	287.625
0.950891	288.644
0.974881	298.413