File: data/nitrogen-adsorption-isotherms/jacs.5b12516-si_page_14_JLU-Liu23_ads.txt
# Relative Pressure (p/p0)    Quantity Adsorbed
-0.003125	 10.8033
-0.003125	24.8972
-0.009375	34.9602
-0.003125	47.0449
-0.003125	57.7831
0.0	71.8792
-0.003125	83.2865
0.0	96.0403
0.0	106.107
0.003125	117.519
-0.003125	128.924
0.0	141.007
0.0	151.074
0.003125	169.868
0.03125	175.927
0.08125	180.659
0.08125	180.659
0.10625	182.018
0.1625	182.727
0.246875	184.797
0.3	184.832
0.346875	184.864
0.4125	184.237
0.459375	184.939
0.5125	184.975
0.55625	185.004
0.615625	185.044
0.659375	185.073
0.765625	184.474
0.765625	184.474
0.81875	182.496
0.871875	183.874
0.915625	183.232
0.94375	182.58