File: data/nitrogen-adsorption-isotherms/jacs.5b00450_page_7_Y-aea-MOF-1_des.txt
# Relative Pressure (p/p0)    Quantity Adsorbed
0.958112	 386.08
0.900236	385.031
0.847461	382.935
0.798091	380.839
0.750427	379.79
0.697658	378.742
0.648292	377.694
0.59723	377.694
0.547854	374.549
0.500191	373.501
0.449118	371.405
0.399753	370.356
0.348675	367.212
0.2959	365.115
0.258444	363.019
0.203961	359.874
0.181824	357.778
0.134139	352.537
0.105188	349.392
0.0983634	346.247