File: data/nitrogen-adsorption-isotherms/jacs.6b04608-si_page_17_NPF-200 water_ads.txt
# Relative Pressure (p/p0)    Quantity Adsorbed
0.0308235	 552.069
0.0323171	586.145
0.0343087	621.096
0.0367981	665.797
0.0389888	698.482
0.041279	729.937
0.0458845	765.299
0.0494715	800.131
0.053007	828.175
0.0605543	877.681
0.0634847	903.4
0.0692484	928.48
0.0735751	954.09
0.0774112	977.785
0.0852035	995.775
0.0983144	1041.09
0.107118	1062.41
0.117066	1084.09
0.128292	1105.74
0.138366	1117.23
0.14932	1128.2
0.160273	1141
0.170348	1145.05
0.182628	1156.05
0.193134	1160.91
0.203639	1164.45
0.21504	1173.74
0.226231	1178.25
0.236173	1180.37
0.248349	1187.13
0.258269	1188.9
0.269808	1196.53
0.280761	1200.04
0.292163	1202.22
0.302668	1204.75
0.312768	1207.74
0.324575	1213.5
0.335528	1216.44
0.346482	1219.85
0.357959	1221.9
0.367642	1224.68
0.371708	1224.25
0.381417	1231.51
0.393096	1236.41
0.403003	1238.04
0.414194	1244.73
0.425147	1248.98
0.437034	1252.37
0.447054	1254.02
0.457129	1255.4
0.468795	1260.97
0.479915	1264.35
0.491722	1266.11
0.501822	1267.47
0.512526	1271.39
0.52406	1273.22
0.534682	1277.38
0.546565	1277.31
0.556352	1278.04
0.567542	1282.07
0.578496	1283.33
0.589449	1284.77
0.60064	1285.17
0.610502	1285.73
0.622309	1289.74
0.633263	1290.25
0.64507	1289.59
0.65517	1289.98
0.666123	1294
0.677077	1294.13
0.68803	1294.07
0.699221	1292.63
0.709003	1294.27
0.72089	1296.98
0.731844	1296.92
0.743487	1296.14
0.753751	1295.57
0.764289	1298.02
0.775658	1300.8
0.786611	1300.74
0.798339	1298.2
0.807889	1298.12
0.819471	1300.55
0.830425	1300.49
0.841793	1300.17
0.852332	1299.85
0.862432	1301.19
0.874239	1303.34
0.885192	1303.28
0.897079	1301.98
0.906651	1301.5
0.918052	1303.09
0.929006	1304.72
0.939959	1306.07
0.951361	1304.14
0.958978	1304