File: data/nitrogen-adsorption-isotherms/jacs.5b11034_page_4_Zn-bpdc-9a(bpy)_des.txt
# Relative Pressure (p/p0)    Quantity Adsorbed
0.980108	 27.6433
0.958222	21.1659
0.942397	17.3436
0.917069	14.9035
0.901484	13.4182
0.872418	12.1471
0.862707	11.511
0.841434	10.9825
0.822068	10.2413
0.796936	9.71339
0.773723	9.07896
0.738946	8.55223
0.698383	8.02624
0.650071	7.18254
0.597944	6.76425
0.551627	6.55769
0.526506	6.13597
0.501419	6.03293
0.462784	5.5067
0.437696	5.40366
0.437696	5.40366
0.393308	5.19686
0.373974	4.77439
0.352712	4.35217
0.331482	4.24865
0.277448	4.04307
0.254279	3.83356
0.213759	3.73249
0.169338	3.20699
0.132643	2.78674
0.0766261	2.05026
0.0495438	1.31008
0.0302102	0.887618