File: data/nitrogen-adsorption-isotherms/jacs.5b11034_page_4_Zn-bpdc-9a(bpe)_des.txt
# Relative Pressure (p/p0)    Quantity Adsorbed
0.986729	 6.37265
0.923197	3.05734
0.819281	-0.206544
0.703927	1.21395
0.703927	1.21395
0.65586	1.6997
0.576998	0.951081
0.532787	1.85644