File: data/nitrogen-adsorption-isotherms/jacs.5b00365-si_page_42_MUF-77-butyl_ads.txt
# Relative Pressure (p/p0)    Quantity Adsorbed
-0.00391652	 243.468
-0.00512955	98.6932
-0.0016756	386.978
-0.00251486	283.276
-0.00302342	201.296
-0.00328221	159.58
0.0007425	462.118
0.000187716	434.646
0.0022551	489.547
0.00354374	512.762
0.0049551	539.816
0.00917023	567.808
-0.000251632	411.204
0.00990466	590.525
0.0145472	614.76
0.00695551	388.473
0.00887612	461.171
0.00870637	433.807
0.0191417	641.918
0.0105057	486.96
0.0241998	665.947
0.0312469	682.987
0.0423586	699.287
0.0574401	708.744
0.0736586	717.216
0.0898577	722.561
0.106053	727.337
0.122455	731.466
0.138287	734.133
0.154613	737.33
0.17025	740.875
0.187636	742.125
0.201786	744.867
0.219341	747.621
0.236613	748.331
0.251694	751.096
0.267868	752.39
0.282557	751.264
0.300321	753.745
0.311237	754.712
0.346681	755.303
0.354895	756.32
0.384007	758.506
0.400179	759.445
0.408994	759.019
0.450463	759.696
0.459708	760.963
0.500439	761.199
0.509688	762.913
0.551582	764.571
0.561134	764.46
0.60066	763.235
0.60964	765.64
0.653181	764.226
0.667322	765.574
0.690551	765.737
0.705172	766.681
0.752052	766.518
0.761028	768.35
0.802915	768.67
0.815409	769.092
0.848474	768.83
0.862435	768.719
0.899915	769.347
0.911671	769.268
0.953156	768.662
0.963113	770.007
0.99348	769.089
1.00427	770.567