File: data/nitrogen-adsorption-isotherms/jacs.5b11034_page_4_Zn-bpdc-9a(bpe)_ads.txt
# Relative Pressure (p/p0)    Quantity Adsorbed
0.17626	 -0.777976
0.204449	-0.903294
0.231456	-0.788659
0.260009	-0.488644
0.286483	-0.41538
0.302898	0.0666877
0.341761	-0.988754
0.38348	-1.04189
0.406179	-0.292864
0.470981	-0.616822
0.490421	-0.730998
0.521787	-0.566563
0.552007	0.0847427
0.603868	0.734034
0.669869	-0.300086
0.722121	-0.310747
0.741548	-1.05083
0.771925	-1.13423
0.818521	-0.433521
0.846051	-1.0945
0.897098	-0.584691
0.920196	-0.115925
0.987483	6.87354