File: data/nitrogen-adsorption-isotherms/jacs.5b11034_page_4_Zn-bpdc-12a(bpe)_ads.txt
# Relative Pressure (p/p0)    Quantity Adsorbed
0.00741228	 4.68023
0.0336367	7.73209
0.0604495	10.0175
0.0872273	10.9415
0.114003	11.766
0.140787	12.9514
0.167562	13.7428
0.194327	14.2003
0.221099	14.8653
0.24787	15.5385
0.274633	15.8824
0.301404	16.5312
0.328162	16.7094
0.35493	17.2168
0.381701	17.8748
0.408474	18.61
0.435231	18.7383
0.462	19.3228
0.488783	20.4503
0.515541	20.5807
0.542312	21.2564
0.569082	21.8542
0.595856	22.6548
0.620199	23.4441
0.645921	23.8683
0.676128	23.004
0.70291	24.0886
0.729705	25.6843
0.758194	27.6793
0.783302	29.1517
0.80917	31.077
0.836926	33.6774
0.863763	36.8771
0.890631	41.33
0.907335	46.0504
0.926413	51.915
0.9399	58.3842
0.952321	75.8341
0.947684	65.7109
0.954626	70.862
0.965274	82.9925
0.970494	88.955
0.963271	76.0301
0.982116	111.396
0.988115	150.514
0.990454	161.98
0.981118	155.426
0.988045	141.011
0.986327	121.478
0.98897	129.667
0.989967	168.55
0.990339	135.656