File: data/nitrogen-adsorption-isotherms/jacs.5b00450_page_7_Y-aea-MOF-1_ads.txt
# Relative Pressure (p/p0)    Quantity Adsorbed
0.953	 385.031
0.905342	385.031
0.852573	383.983
0.803197	380.839
0.753837	380.839
0.702769	379.79
0.653404	378.742
0.602337	377.694
0.554657	373.501
0.503595	373.501
0.45423	372.453
0.399747	369.308
0.355494	369.308
0.306107	364.067
0.256731	360.922
0.198844	357.778
0.149458	352.537
0.0881509	346.247
0.0796299	344.151
0.0728056	341.006
0.0523379	332.621
0.0386946	327.379
0.0318542	321.09
0.0267052	312.704
0.0232582	304.319
0.0197898	291.74
0.0163108	277.065
0.0128156	259.245
0.0127514	246.667
0.00755419	228.847
0.00754349	226.751
0.00582536	223.606
0.00578789	216.268
0.00573972	206.834
0.00570761	200.545
0.00394666	189.015
0.00390919	181.677
0.0021643	173.291
0.00208402	157.568
0.000280253	137.652
0.000280253	137.652
-0.00149675	122.977
-0.00149675	122.977
-0.00166803	89.434
-0.00171085	81.0482
-0.00173761	75.8071
-0.00176972	69.5178
-0.00180184	63.2285
-0.00183395	56.9392
-0.000153293	52.7463
-0.00188748	46.457
-0.00190889	42.2642
-0.00195706	32.8302
-0.00198382	27.5891
-0.00200523	23.3962
-0.00202664	19.2034
-0.00203735	17.1069
-0.00205876	12.914
-0.00205876	12.914
-0.00208016	8.72117
-0.00211228	2.43187