File: data/nitrogen-adsorption-isotherms/jacs.6b08724-si_page_51_(Ni3O)2(TCPP-Cu)3_des.txt
# Relative Pressure (p/p0)    Quantity Adsorbed
0.991038	 1054.17
0.902333	1047.62
0.864633	1044.35
0.809174	1031.25
0.758176	1031.25
0.711613	1031.25
0.662819	1024.7
0.614019	1014.88
0.560811	1018.15
0.509786	1005.06
0.463223	1005.06
0.407771	995.238
0.363399	982.143
0.314599	972.321
0.268016	962.5
0.221433	952.679
0.212293	818.452
0.203245	730.06
0.196567	716.964
0.19433	707.143
0.192093	697.321
0.189856	687.5
0.180941	664.583
0.160892	618.75
0.145312	589.286
0.120862	559.821
0.0941756	520.536
0.0652848	487.798
0.0541521	464.881
0.0296761	422.321
0.0185368	396.131
0.00956208	343.75