File: data/nitrogen-adsorption-isotherms/jacs.6b08724-si_page_52_(Fe3O)2(TCPP-Co)3_des.txt
# Relative Pressure (p/p0)    Quantity Adsorbed
0.983087	 774.905
0.89852	759.292
0.856237	754.914
0.811839	752.831
0.763214	746.196
0.710359	739.581
0.661734	739.803
0.615222	735.444
0.562368	731.114
0.509514	731.356
0.458774	715.588
0.410148	713.525
0.365751	706.87
0.315011	697.96
0.262156	689.058
0.219873	677.823
0.207188	675.595
0.200846	671.053
0.200846	655.053
0.192389	554.52
0.190275	508.815
0.183932	495.13
0.160677	458.665
0.143763	438.171
0.124736	419.972
0.0972516	390.384
0.0761099	367.623
0.0549683	349.434
0.0359408	326.664
0.0232558	301.579
0.0147992	274.189