File: data/nitrogen-adsorption-isotherms/jacs.6b08724-si_page_52_(Fe3O)2(TCPP-Co)3_ads.txt
# Relative Pressure (p/p0)    Quantity Adsorbed
0.0075939	 84.0993
0.0075939	73.6888
0.00846368	165.437
0.00846368	154.537
0.0075939	145.783
0.00852581	132.689
0.00701404	126.247
0.00846368	112.435
0.0075939	104.407
0.00933347	200.261
0.0106382	221.626
0.00976837	64.6409
0.0139723	238.84
0.0233012	287.446
0.0219454	276.481
0.0206407	265.829
0.031948	311.514
0.0297735	297.172
0.0345573	308.552
0.0397761	315.863
0.0490761	331.742
0.0526054	336.798
0.0602161	341.113
0.0661803	356.4
0.0672365	348.704
0.0763072	357.517
0.0859292	369.911
0.089209	376.009
0.0971821	377.069
0.105989	388.803
0.118637	405.555
0.130234	426.729
0.136265	417.87
0.140547	424.673
0.148397	446.017
0.157197	447.679
0.161372	470.374
0.169766	470.994
0.177782	482.032
0.180247	502.542
0.187118	516.804
0.207913	659.878
0.205471	557.203
0.216343	666.129
0.225911	669.334
0.235478	674.847
0.241465	682.397
0.250656	683.946
0.246351	677.148
0.259398	679.157
0.272879	684.806
0.282447	690.96
0.292015	692.327
0.301375	694.427
0.310498	688.492
0.347018	701.786
0.354165	703.185
0.356814	697.096
0.397466	709.459
0.403782	711.31
0.407262	704.153
0.418569	708.803
0.447228	715.443
0.455535	710.41
0.497492	720.689
0.503199	720.892
0.54707	725.926
0.553676	728.769
0.597517	730.106
0.603399	738.285
0.61862	733.278
0.696858	739.057
0.70212	744.181
0.746435	744.073
0.796699	747.868
0.996543	780.457