File: data/nitrogen-adsorption-isotherms/jacs.6b03263_page_5_PCN-134-22%_ads.txt
# Relative Pressure (p/p0)    Quantity Adsorbed
-0.00156464	 280.167
-0.00201933	219.067
-0.000991431	196.924
-0.00166222	175.828
-0.00176484	138.138
-0.000551784	118.061
-0.00454646	108.512
-0.00158545	81.0922
-0.00153223	64.1695
-0.00147894	47.2224
-0.00142546	30.2181
-0.00135559	7.99743
-0.000789448	323.148
0.00199562	399.294
0.00237609	375.436
0.00205673	339.865
0.00434094	416.661
0.00576381	451.419
0.00763012	474.848
0.00979125	496.469
0.0114414	509.49
0.0167233	556.608
0.016583	474.262
0.0179665	491.405
0.0200623	510.569
0.0242375	554.138
0.0277745	572.101
0.0398658	612.369
0.0341815	591.592
0.0492021	614.523
0.0704718	630.957
0.0861973	636.472
0.100339	636.941
0.126777	642.063
0.135348	645.48
0.162186	647.86
0.179644	653.251
0.192411	652.638
0.210466	653.914
0.226423	655.442
0.240952	659.829
0.256761	660.713
0.271311	658.311
0.284073	659.978
0.305541	661.067
0.320994	662.87
0.334469	662.752
0.350353	663.224
0.367684	663.922
0.384586	664.854
0.399457	665.968
0.413515	666.156
0.430091	666.963
0.447052	667.078
0.463626	668.187
0.477684	668.754
0.492558	668.734
0.509465	668.376
0.526648	668.362
0.542678	669.865
0.556148	671.297
0.571686	671.196
0.588765	671.499
0.605924	671.64
0.621057	672.135
0.634854	672.743
0.650739	672.537
0.668072	672.728
0.684968	673.551
0.699846	674.386
0.714012	675.169
0.730607	675.012
0.747765	675.336
0.764017	676.133
0.778074	676.86
0.792949	676.752
0.809549	676.601
0.826814	677.787
0.842956	678.863
0.856301	679.546
0.872076	679.39
0.889157	679.043
0.906233	680.265
0.922004	681.723
0.935349	682.388
0.950955	682.438