File: data/nitrogen-adsorption-isotherms/jacs.5b00450_page_7_Tb-pek-MOF-1 (1)_ads.txt
# Relative Pressure (p/p0)    Quantity Adsorbed
0.954638	 372.453
0.906964	369.308
0.847413	373.501
0.748661	367.212
0.748661	367.212
0.707811	367.212
0.801436	369.308
0.350329	357.778
0.447363	360.922
0.501845	364.067
0.554609	364.067
0.600581	367.212
0.646542	368.26
0.253289	353.585
0.146011	344.151
0.0812784	333.669
0.0488963	325.283
0.0420666	321.09
0.0266516	302.222
0.00913316	204.738
0.00216966	174.34
-0.00494371	114.591
-0.00494371	114.591
-0.00532908	39.1195