File: data/nitrogen-adsorption-isotherms/jacs.5b00365-si_page_40_MUF-7a_ads.txt
# Relative Pressure (p/p0)    Quantity Adsorbed
-0.00374824	 24.9435
-0.00241052	122.683
-0.00133545	74.2158
-4.39844e-05	170.933
0.00110787	211.177
0.00267857	311.38
0.00269603	254.171
0.004354	425.682
0.00403985	365.835
0.00561862	484.873
0.00709401	531.47
0.00864726	619.555
0.0117081	684
0.0130191	734.204
0.00697184	131.662
0.00843783	651.66
0.00843783	586.102
0.00843783	167.421
0.0174537	785.206
0.0128358	426.675
0.0227313	830.084
0.0172338	618.881
0.0283335	868.237
0.0216318	736.29
0.0342393	904.656
0.0304277	827.476
0.0432959	939.72
0.050463	974.883
0.0593618	1011.92
0.0678594	1049.88
0.074041	1091.72
0.0773395	1136.58
0.0826334	1175.32
0.0884811	1217.25
0.097691	1252.91
0.112523	1268.78
0.128649	1281.64
0.144775	1291.33
0.160608	1300.61
0.176101	1307.32
0.193412	1313.73
0.210294	1322.14
0.224232	1326.76
0.240553	1329.2
0.257657	1336.64
0.274369	1336.95
0.289909	1343.68
0.302369	1344.99
0.328024	1348.96
0.345729	1350.8
0.355145	1352.69
0.393896	1355.02
0.404465	1356.84
0.444296	1360.6
0.453367	1366.1
0.477556	1366.84
0.493682	1369.42
0.503944	1368.83
0.54657	1370.86
0.555986	1373.55
0.581641	1375.78
0.597767	1374.4
0.606563	1377.27
0.649077	1381.61
0.658606	1381.74
0.699507	1381.94
0.715047	1384.86
0.731173	1385.4
0.746565	1387.7
0.800074	1389.87
0.809603	1389.94
0.84464	1387.7
0.853583	1391.43
0.895477	1391.94
0.91149	1393.66
0.927616	1393.66
0.943742	1396.1
0.953271	1395.9
0.989015	1392.79
0.998961	1395.4