File: data/nitrogen-adsorption-isotherms/jacs.6b08724-si_page_50_(Ni3O)2(TCPP-Co)3_ads.txt
# Relative Pressure (p/p0)    Quantity Adsorbed
-0.00779601	 46.796
-0.00708934	135.607
-0.00722446	115.73
-0.00744942	65.3574
-0.00751152	30.4261
-0.00681269	10.602
-0.00536837	156.136
-0.00373363	188.928
-0.00326261	211.521
-0.0013308	231.787
0.000800048	251.768
0.00511197	256.833
0.00438151	283.927
0.00980758	295.32
0.0192842	326.11
0.0529044	380.741
0.0747521	406.801
0.0935987	429.433
0.103649	438.697
0.124153	471.041
0.133385	474.456
0.145009	499.684
0.174119	549.18
0.184827	604.998
0.189594	661.538
0.191386	691.29
0.191212	673.584
0.193542	708.574
0.204773	730.396
0.209232	750.333
0.206212	739.574
0.232721	763.067
0.23933	769.932
0.248494	769.882
0.288747	778.577
0.298479	780.62
0.345115	787.447
0.351799	788.249
0.355577	780.762
0.396111	793.638
0.446559	798.807
0.496804	802.887
0.547797	806.917
0.597294	810.645
0.602878	814.629
0.653291	824.238
0.696633	816.84
0.703313	816.772
0.75266	823.264
0.798267	821.927
0.847561	824.32
0.853773	825.948
0.905896	819.98