File: data/nitrogen-adsorption-isotherms/jacs.6b03263_page_5_PCN-134-25%_ads.txt
# Relative Pressure (p/p0)    Quantity Adsorbed
-0.00138572	 303.262
-0.00150157	152.369
-0.000584009	-8.81869
0.00494796	431.772
0.0132562	532.304
0.00752478	155.138
0.0131133	434.897
0.0261109	598.342
0.034869	601.529
0.0434108	627.779
0.0583119	637.892
0.0720972	647.351
0.0890878	653.247
0.107268	661.83
0.125175	663.418
0.137879	667.088
0.153331	669.297
0.170033	671.787
0.186613	675.454
0.204192	675.957
0.217893	679.22
0.232354	680.105
0.249395	682.431
0.266211	683.648
0.282434	686.26
0.295356	687.416
0.311467	687.366
0.328734	688.847
0.345272	690.393
0.361151	691.706
0.374733	692.161
0.390816	692.855
0.408032	693.772
0.42474	694.495
0.439318	696.095
0.453775	696.979
0.470202	697.273
0.486957	698.327
0.503668	698.695
0.517835	699.117
0.532713	700.011
0.549291	699.892
0.56663	701.605
0.582714	702.129
0.596881	702.714
0.611835	702.603
0.628912	703.253
0.64568	703.931
0.661128	705.292
0.675737	706.54
0.691532	706.216
0.708409	706.2
0.725117	706.724
0.739696	708.18
0.754154	708.622
0.770621	709.276
0.787581	709.518
0.804158	709.916
0.818214	710.795
0.833089	710.69
0.849937	711.682
0.866291	713.102
0.88246	713.845
0.897667	715.35
0.912133	714.752
0.929294	714.177
0.946059	715.592
0.955153	718.732