File: data/nitrogen-adsorption-isotherms/jacs.5b12516-si_page_14_JLU-Liu23_des.txt
# Relative Pressure (p/p0)    Quantity Adsorbed
1.00312	 184.633
1.00312	184.633
0.96875	184.61
0.934375	183.245
0.909375	183.899
0.88125	183.88
0.853125	183.861
0.83125	183.175
0.784375	183.815
0.784375	183.815
0.734375	183.781
0.684375	184.419
0.625	184.379
0.58125	184.35
0.534375	184.318
0.4875	184.958
0.428125	184.247
0.378125	184.214
0.334375	184.184
0.284375	183.479
0.228125	184.113
0.20625	184.098
0.140625	183.383
0.025	175.252
-0.003125	150.401