File: data/nitrogen-adsorption-isotherms/jacs.5b02897-si_page_18_Mn2(DSBDC)(DMF)2_ads.txt
# Relative Pressure (p/p0)    Quantity Adsorbed
0.922508	 55.9116
0.820678	55.9116
0.725541	56.0765
0.620447	56.9008
0.52364	57.0656
0.425239	58.0547
0.300098	58.7141
0.204946	58.7141
0.101491	59.2087
0.0562853	57.725
0.0445554	57.2305
0.034465	56.4062
0.0327065	55.4171
0.0175042	53.4388
0.0105147	49.9769
0.00152905	42.8882
0.00522934	28.3811
-0.00110127	13.7092