File: data/nitrogen-adsorption-isotherms/jacs.5b11034_page_4_MOF-1'_des.txt
# Relative Pressure (p/p0)    Quantity Adsorbed
0.968059	 4.27373
0.968059	4.27373
0.991338	5.54555
0.948747	4.06373
0.925599	4.06668
0.906298	3.9629
0.887019	4.07159
0.856155	4.07553
0.813707	3.97471
0.786701	3.97815
0.767411	3.98061
0.721115	3.98651
0.680607	3.99168
0.624677	4.10504
0.595709	3.79003
0.595709	3.79003
0.528206	3.90487
0.503129	3.90807
0.462631	4.01946
0.435593	3.70421
0.397013	3.70913
0.371947	3.81856
0.32758	3.82421
0.292826	3.50995
0.271618	3.61888
0.24847	3.62183
0.223382	3.5188
0.180955	3.63044
0.175168	3.63118
0.161644	3.42044
0.123042	3.21289
0.0979434	3.00363
0.0709157	2.79461
0.051604	2.58461
0.051604	2.58461
0.0322813	2.26837
0.0110187	1.84616