File: data/nitrogen-adsorption-isotherms/jacs.5b11034_page_4_Zn-bpdc-9a(bpy)_ads.txt
# Relative Pressure (p/p0)    Quantity Adsorbed
0.0184518	 0.296674
0.0471629	0.94498
0.0755782	1.35064
0.0917104	1.50149
0.211175	3.97665
0.238744	4.18794
0.269372	4.51631
0.296793	4.46918
0.349669	5.01512
0.404143	5.30465
0.450483	5.51131
0.499233	5.44356
0.551674	5.71497
0.600466	6.06356
0.651696	6.41184
0.701714	6.82069
0.74199	7.32412
0.771286	7.73913
0.804996	8.40066
0.832643	9.10047
0.861188	10.1112
0.886227	11.2693
0.911772	12.7409
0.927239	14.1885
0.943515	16.0047
0.955174	17.9583
0.962672	19.7537
0.968991	21.9287
0.976577	24.5786
0.99096	34.0535
0.986722	28.4058