File: data/nitrogen-adsorption-isotherms/jacs.6b03263-si_page_18_PCN-133-40%_ads.txt
# Relative Pressure (p/p0)    Quantity Adsorbed
0.00888497	 52.5943
0.0144938	132.055
0.010619	119.48
0.0102528	103.054
0.0176749	141.369
0.0283054	143.329
0.0398392	146.252
0.051367	148.214
0.0625807	149.207
0.0741631	150.532
0.0872845	152.248
0.0960903	153.102
0.0974452	150.889
0.110688	153.956
0.1209	154.293
0.133064	154.965
0.145545	155.983
0.155113	156.054
0.170376	156.827
0.178823	156.917
0.194375	157.844
0.208055	158.283
0.217067	158.621
0.230213	158.979
0.239546	159.116
0.252903	159.397
0.263649	159.537
0.275218	160.047
0.288331	160.555
0.297392	160.517
0.310831	160.68
0.320412	160.883
0.333301	161.326
0.34485	160.956
0.355611	161.394
0.371553	161.437
0.381133	161.477
0.394017	161.254
0.406567	161.932
0.416332	162.023
0.431335	161.911
0.440733	162.221
0.453914	162.044
0.46466	162.116
0.476225	162.145
0.48968	161.989
0.498692	162.316
0.511836	162.358
0.521169	162.533
0.534301	162.229
0.545971	162.5
0.556835	162.573
0.569926	162.631
0.57861	162.543
0.592292	162.757
0.60217	162.834
0.614659	162.383
0.626896	161.892
0.637218	162.291
0.650531	162.351
0.659613	162.461
0.672897	162.398
0.682629	162.383
0.695265	162.236
0.707391	162.217
0.717826	162.366
0.732719	162.269
0.742226	162.543
0.755405	161.913
0.766379	161.841
0.777715	161.955
0.790455	161.704
0.80018	161.881
0.813323	161.797
0.82283	162.096
0.835789	161.731
0.847356	162.069
0.858323	162.131
0.871414	162.149
0.880098	162.076
0.893932	162.058
0.903264	162.085
0.916397	161.961
0.928146	161.844
0.938929	162.012
0.952019	161.916
0.960704	161.939