File: data/nitrogen-adsorption-isotherms/jacs.6b03263-si_page_18_PCN-133-60%_ads.txt
# Relative Pressure (p/p0)    Quantity Adsorbed
-0.00303196	 125.374
-0.00350065	62.8772
-0.00303196	32.8157
-0.00245911	211.725
-0.00245911	186.264
-0.00245911	100.757
0.00138659	275.411
0.000248905	151.867
0.00274861	250.564
0.00555277	296.382
0.0094713	273.833
0.0141312	295.441
0.0121225	289.781
0.0193482	311.451
0.0198867	304.741
0.0303022	316.149
0.0256626	306.397
0.0412857	321.251
0.0527427	324.958
0.0647783	328.021
0.074673	328.935
0.0875824	332.68
0.0973902	333.409
0.110028	335.663
0.121762	337.093
0.132694	338.062
0.145318	340.034
0.154872	340.299
0.167781	342.232
0.177988	342.525
0.190226	344.029
0.202074	344.942
0.212892	345.719
0.2257	347.114
0.234952	347.505
0.247759	348.597
0.258274	349.024
0.270425	349.696
0.282189	350.568
0.292871	350.909
0.307348	351.885
0.317555	352.231
0.329793	352.941
0.341446	353.499
0.352459	353.871
0.365267	354.792
0.374518	355.042
0.387547	355.453
0.397949	355.824
0.409992	356.302
0.422213	356.891
0.432438	357.278
0.445173	357.67
0.454717	357.712
0.467746	358.247
0.478148	358.42
0.490191	358.829
0.502234	359.111
0.512636	359.396
0.525665	359.823
0.534491	359.909
0.547724	360.245
0.558239	360.474
0.57039	360.71
0.582433	361.143
0.592835	361.343
0.60646	361.526
0.61634	361.734
0.628716	361.886
0.640382	362.046
0.65163	362.212
0.664064	362.618
0.673561	362.646
0.68647	362.748
0.696482	363.136
0.708915	363.092
0.72067	363.13
0.731829	363.569
0.744458	363.87
0.754085	364.062
0.766669	364.08
0.777045	364.253
0.789114	364.48
0.800766	364.523
0.81178	364.582
0.824657	364.675
0.834284	364.806
0.846868	364.986
0.857075	365.033
0.869313	365.291
0.881076	365.321
0.891979	365.606
0.905212	365.711
0.914483	365.919
0.927067	366.043
0.937442	366.151
0.949512	366.281
0.956976	366.417