File: data/nitrogen-adsorption-isotherms/jacs.6b04608-si_page_18_NPF-201_ads.txt
# Relative Pressure (p/p0)    Quantity Adsorbed
-0.00376227	 85.1647
-0.00354149	81.0346
-0.00372268	76.7391
-0.00394208	67.3334
-0.00327503	62.6633
-0.0041886	58.5574
-0.00376227	49.504
-0.00424612	44.8067
-0.00395851	34.9965
-0.00429758	29.5803
-0.00372268	24.6025
-0.00372268	19.6894
-0.00394208	14.7715
-0.00382621	9.87129
-0.00338331	5.45485
-0.00272689	89.025
-0.000622314	103.639
0.00340413	116.806
0.0131251	118.247
0.0250237	124.45
0.054655	130.608
0.0726015	134.356
0.0835791	135.569
0.0938611	137.536
0.106021	138.527
0.11787	139.573
0.129374	140.178
0.140911	140.589
0.153499	141.554
0.164922	142.203
0.175966	142.868
0.186967	143.234
0.198874	143.496
0.211039	144.117
0.223076	144.691
0.234095	144.793
0.246026	145.053
0.257415	145.564
0.269002	146.116
0.284015	145.003
0.29699	146.737
0.308609	146.79
0.320179	146.876
0.332537	147.149
0.344628	147.381
0.357777	147.638
0.380526	147.462
0.411291	148.317
0.425606	148.331
0.436983	148.299
0.448384	148.272
0.459313	148.269
0.470529	148.868
0.483601	148.493
0.495378	148.617
0.506767	148.22
0.518674	148.737
0.530178	148.809
0.542229	148.785
0.552957	148.579
0.563885	148.493
0.575102	148.806
0.586434	148.396
0.598513	148.456
0.611973	148.239
0.624627	148.282
0.636131	148.242
0.649442	148.38
0.663419	147.797
0.673876	148.313
0.684334	148.278
0.707687	148.003
0.718961	147.78
0.731184	147.298
0.750482	147.471
0.771453	147.251
0.7814	146.833
0.796464	146.209
0.808449	147.218
0.865834	146.782
0.876913	146.672
0.888302	146.275
0.899044	146.463
0.910217	146.59
0.922239	146.27
0.957787	146.297
0.967819	142.962
0.968469	145.886
0.976309	143.848