File: data/nitrogen-adsorption-isotherms/jacs.5b00365_page_3_MUF-77-ethyl_des.txt
# Relative Pressure (p/p0)    Quantity Adsorbed
0.952503	 992.026
0.902248	1000.74
0.798424	998.146
0.700641	992.041
0.600551	992.872
0.50045	990.245
0.404995	984.121
0.302577	984.971
0.204746	961.579
0.174467	954.914
0.146525	951.688
0.111581	941.605
0.0812529	917.652
0.0530888	834.898
0.0223748	672.636
0.00555942	486.053