File: data/nitrogen-adsorption-isotherms/jacs.5b11034-si_page_17_Cu-bpdc-8a(bpy)_des.txt
# Relative Pressure (p/p0)    Quantity Adsorbed
0.990074	 488.411
0.992405	460.265
0.982381	430.464
0.979748	397.351
0.972079	344.371
0.966904	296.358
0.954329	250.0
0.954329	250.0
0.959357	268.212
0.941902	233.444
0.936906	221.854
0.926964	208.609
0.917022	195.364
0.907097	185.43
0.897171	175.497
0.879846	167.219
0.867484	163.907
0.842752	155.629
0.820505	150.662
0.768604	140.728
0.768604	140.728
0.741428	137.417
0.701913	135.762
0.654967	129.139
0.600613	122.517
0.546284	120.861
0.526523	119.205
0.499362	119.205
0.491955	119.205
0.469724	117.55
0.440078	114.238
0.425264	114.238
0.400556	110.927
0.370926	110.927
0.358581	110.927
0.306704	105.96
0.269659	104.305
0.259783	104.305
0.23756	104.305
0.217807	104.305
0.200523	104.305
0.190639	102.649
0.1857	102.649
0.170877	100.993
0.158532	100.993
0.131371	100.993
0.0968032	100.993
0.0770256	96.0265
0.0523342	96.0265
0.0300711	87.7483
0.00784073	86.0927
0.805674	147.351