File: data/nitrogen-adsorption-isotherms/jacs.6b04608_page_2_NPF-200_des.txt
# Relative Pressure (p/p0)    Quantity Adsorbed
0.021503	 374.398
0.0214112	272.201
0.0189138	208.01
0.256915	1331.63
0.297994	1335.16
0.334911	1338
0.374157	1349.23
0.413355	1355.58
0.454894	1371.62
0.494136	1382.49
0.532303	1385.83
0.568728	1395.12
0.619941	1379.19
0.656364	1384.71
0.723211	1388.56
0.803951	1388.85
0.883072	1387.8
0.961449	1398.47
0.984705	1387.27
0.221587	1312
0.176883	1298.7
0.157903	1276.88
0.136368	1233.34
0.129078	1207.25
0.102432	1120.28
0.102432	1120.28
0.1194	1176.81
0.1194	1176.81
0.090114	1059.44
0.090114	1059.44
0.0927535	1089.84
0.0731037	998.568
0.0731037	998.568
0.0703385	955.147
0.0628389	907.358
0.0628389	907.358
0.0504793	842.176
0.0477141	798.756
0.0471694	742.329
0.0348517	681.488
0.0341394	607.699
0.0337205	564.294
0.0308296	507.852
0.0254667	438.374
0.0219893	321.165
0.839402	1393.98
0.907568	1407.43
0.759672	1397.82
0.593047	1392.44