File: data/nitrogen-adsorption-isotherms/jacs.6b04608-si_page_17_NPF-200 pristine_ads.txt
# Relative Pressure (p/p0)    Quantity Adsorbed
0.00172495	 128.365
0.000651732	85.9053
0.00367223	56.6584
0.00519907	225.797
0.00438586	171.938
0.00435267	30.1101
0.00831914	200.199
0.010709	251.209
0.011406	318.256
0.01269	378.773
0.0135635	345.251
0.0152397	436.856
0.0153338	406.868
0.0171198	502.34
0.0168827	469.332
0.0192726	568.402
0.0204924	606.127
0.0221935	648.875
0.0216624	622.355
0.0245377	681.285
0.0257922	720.924
0.0295511	755.09
0.0310369	788.832
0.0343087	817.838
0.0382039	850.69
0.0417105	880.456
0.0456936	903.019
0.0502117	934.238
0.055542	961.561
0.0606343	989.638
0.0646132	1013.63
0.0744615	1072.75
0.0795497	1095.9
0.0854736	1120.07
0.09319	1145.99
0.101971	1169.68
0.110042	1193.43
0.117403	1216.85
0.126779	1236.59
0.135996	1258.64
0.146961	1277.84
0.168239	1294.81
0.178553	1299.02
0.190775	1305.96
0.200325	1308.02
0.212053	1315.07
0.223007	1319.05
0.234408	1320.86
0.244914	1322.49
0.255013	1325.51
0.26682	1330.44
0.277774	1332.45
0.288727	1335.67
0.299681	1335.89
0.309781	1338.26
0.321588	1342.62
0.332541	1344.53
0.344269	1345.25
0.353673	1346
0.365401	1349.6
0.376355	1351.8
0.387308	1352.58
0.39914	1352.21
0.408767	1353.13
0.420169	1356.52
0.431122	1359
0.442075	1359.5
0.453029	1358.03
0.463129	1360.26
0.474936	1362.41
0.485889	1362.35
0.497696	1363.9
0.507559	1362.82
0.51875	1366.29
0.529952	1366.4
0.540656	1370.3
0.552239	1368.33
0.56163	1367.92
0.573517	1370.4
0.58447	1373.15
0.595424	1373.09
0.606377	1370.73
0.616641	1371.78
0.628284	1374.87
0.639237	1375.94
0.651124	1374
0.660696	1374.16
0.672098	1375.75
0.683051	1377.94
0.694005	1379.76
0.705195	1376.11
0.714978	1376.87
0.726865	1379.57
0.737818	1379.51
0.749625	1378.49
0.759725	1379.25
0.770264	1381.82
0.781632	1382.36
0.792586	1382.3
0.804418	1381.14
0.813746	1381.86
0.817231	1376.48
0.827437	1382.1
0.838391	1382.04
0.850034	1383.17
0.860298	1382.24
0.871251	1385.52
0.882205	1385.92
0.893158	1385.86
0.90499	1384.09
0.914436	1383.73
0.926018	1385.67
0.936972	1385.71
0.947925	1388.56
0.959116	1385.04
0.967298	1384.6