File: data/nitrogen-adsorption-isotherms/jacs.5b02897-si_page_18_Fe2(DOBDC)(DMF)2_ads.txt
# Relative Pressure (p/p0)    Quantity Adsorbed
0.904725	 62.3409
0.826251	62.1761
0.721113	62.5058
0.620938	62.3409
0.52744	62.1761
0.417293	62.5058
0.308757	62.1761
0.205228	61.8464
0.101655	61.0221
0.0598469	60.1978
0.041395	59.2087
0.0363424	58.7141
0.0296056	58.0547
0.0194707	56.7359
0.00575936	52.7794
0.0110051	55.4171
0.0110051	55.4171
0.00500147	44.3719
0.00235134	33.4916
0.0013854	22.7761
0.000330301	11.0715