File: data/nitrogen-adsorption-isotherms/jacs.5b00365-si_page_41_MUF-77-methyl_ads.txt
# Relative Pressure (p/p0)    Quantity Adsorbed
-0.00130038	 62.3956
-9.1987e-05	279.556
-0.000495259	181.485
-0.000289274	146.254
0.000363583	115.398
0.00119579	465.143
0.00089731	372.699
0.00359773	588.811
0.00539144	630.111
0.00839053	664.935
0.00113625	233.349
0.0115914	696.364
0.0139464	722.465
0.0206268	749.597
0.0279939	774.233
0.0347733	800.492
0.0429812	828.74
0.0509894	858.47
0.0579396	888.212
0.0641096	919.261
0.069791	948.243
0.0759131	972.011
0.0811863	1003.54
0.0870271	1028.91
0.0973794	1056.21
0.112304	1070.03
0.128371	1081.21
0.144513	1089.37
0.160519	1095.72
0.176596	1100.93
0.192014	1106.96
0.209756	1115.32
0.223811	1118.74
0.240536	1123.37
0.256982	1126.59
0.274437	1127.96
0.28975	1134.81
0.30149	1134.62
0.328612	1142.15
0.343913	1140.71
0.358828	1145.91
0.371741	1148.39
0.392938	1153.01
0.408145	1154.12
0.423643	1155.88
0.445566	1162.82
0.455073	1162.08
0.495277	1168.75
0.504789	1164.69
0.537689	1167.13
0.551579	1168.5
0.581553	1171.04
0.597644	1168.28
0.616159	1173.4
0.626882	1173.64
0.646087	1174.03
0.655392	1177.39
0.672207	1178.66
0.697528	1176.47
0.71059	1181.23
0.723386	1181.28
0.745657	1182.48
0.755552	1185.04
0.796619	1185.49
0.806733	1186.03
0.821356	1186.49
0.846801	1186.74
0.862298	1189.29
0.878384	1189.12
0.894467	1191.06
0.905433	1191.65
0.932483	1194.18
0.948574	1191.49
0.957341	1195.48
0.986926	1195.4
0.997554	1197.14