File: data/nitrogen-adsorption-isotherms/jacs.6b03263-si_page_18_PCN-133-55%_ads.txt
# Relative Pressure (p/p0)    Quantity Adsorbed
-0.00379824	 39.4428
-0.0081876	29.0348
-0.00350065	16.9794
-0.00350065	8.55511
-0.000983589	167.711
-0.000524813	105.017
-0.00141757	55.9925
-0.000376021	169.633
-0.000376021	131.927
-0.000144567	83.295
0.0046479	145.812
0.0109584	189.595
0.00726197	165.799
0.0138268	198.934
0.0106643	178.201
0.0252788	201.676
0.0361937	205.616
0.0480558	208.561
0.0585233	210.138
0.0706969	211.988
0.0831789	214.156
0.0928942	214.784
0.108864	216.526
0.118039	217.196
0.131327	218.283
0.142923	219.029
0.153304	219.913
0.168289	220.993
0.177407	221.497
0.190695	221.993
0.20177	222.819
0.212672	223.425
0.227657	224.215
0.236947	224.845
0.250252	224.983
0.260811	225.571
0.27226	225.983
0.285615	226.631
0.294258	226.981
0.307798	227.583
0.317146	227.995
0.330262	228.056
0.340872	228.487
0.352459	229.011
0.365813	229.281
0.374518	229.594
0.387997	229.989
0.397173	230.248
0.41024	230.496
0.42193	230.801
0.432438	230.941
0.447365	231.5
0.456167	231.598
0.470018	231.863
0.480904	232.166
0.492026	232.302
0.50507	232.549
0.513691	232.643
0.527564	232.942
0.53674	233.246
0.550217	233.121
0.560322	233.249
0.572225	233.69
0.585212	233.807
0.59415	234.121
0.607763	234.013
0.616939	234.303
0.630416	234.332
0.641302	234.669
0.652203	234.671
0.665468	234.915
0.674483	235.102
0.687853	235.192
0.697138	235.385
0.710426	235.568
0.722021	235.525
0.732402	235.858
0.747387	236.092
0.756687	236.14
0.769983	236.052
0.780087	235.991
0.791991	236.444
0.805035	236.501
0.813814	237.14
0.8155	235.139
0.828461	236.742
0.838067	237.081
0.850565	236.788
0.862977	237.102
0.872821	237.275
0.886954	237.491
0.895947	237.444
0.90955	237.299
0.919591	237.492
0.931806	237.664
0.944304	237.816
0.953353	238.188
0.95472	235.139