File: data/nitrogen-adsorption-isotherms/jacs.5b11034_page_4_Zn-bpdc-12a(bpy)_des.txt
# Relative Pressure (p/p0)    Quantity Adsorbed
0.00606037	 5.4393
0.0325361	6.86999
0.0594737	8.05217
0.0863866	8.99348
0.113277	9.71252
0.140153	10.3019
0.169773	10.8928
0.191075	11.3004
0.227133	12.1828
0.254212	12.6567
0.300183	13.7295
0.352671	14.4534
0.379617	15.7109
0.401613	16.2538
0.439616	18.3586
0.463531	20.716
0.507143	23.0907
0.531523	23.1086
0.581503	23.1583
0.650993	23.274
0.700966	23.2534
0.74121	23.445
0.770477	23.5689
0.802185	23.7244
0.829021	23.9223
0.855868	24.2275
0.884786	24.345
0.908942	24.7218
0.936502	26.0336
0.961996	27.3926
0.978296	29.4389
0.990289	32.6158
0.987336	30.4251
0.993488	34.9352
0.988673	35.521