File: data/nitrogen-adsorption-isotherms/jacs.5b02897-si_page_18_Fe2(DSBDC)(DMF)2_ads.txt
# Relative Pressure (p/p0)    Quantity Adsorbed
0.90793	 60.8572
0.800319	52.2849
0.706242	45.6907
0.615652	40.7451
0.521649	34.9753
0.427661	29.3703
0.305205	22.7761
0.202855	17.0063
0.100505	11.2364
0.0652116	8.59875
0.0517974	7.93933
0.0299623	6.45565
0.0147896	4.80712