File: data/nitrogen-adsorption-isotherms/jacs.6b08724-si_page_51_(Ni3O)2(TCPP-Cu)3_ads.txt
# Relative Pressure (p/p0)    Quantity Adsorbed
-0.00420167	 109.784
-0.00448612	64.5644
-0.00434896	36.7155
-0.00336854	85.6352
0.00100182	129.296
0.00548323	165.192
0.00412784	146.469
0.00476483	106.907
0.00490049	62.1434
0.00414752	36.4412
0.00561072	203.3
0.00558146	188.784
0.00491754	85.6913
0.00261223	73.4011
0.00733141	242.344
0.00848013	269.161
0.0120502	305.513
0.0105722	288.817
0.0136076	323.853
0.0222213	367.538
0.0192873	350.858
0.0186561	339.409
0.0309247	403.438
0.0370484	412.814
0.0454042	434.888
0.0553657	448.987
0.064976	464.893
0.0759513	479.148
0.0879306	501.203
0.0875657	493.627
0.0988186	509.816
0.106429	523.721
0.116833	537.274
0.120921	538.074
0.129369	570.014
0.128636	549.307
0.13645	562.624
0.138885	571.265
0.148162	576.46
0.155194	589.199
0.157843	602.418
0.161482	597.336
0.166977	608.304
0.17574	633.5
0.186222	651.885
0.204767	744.679
0.21134	752.648
0.212552	729.464
0.209153	714.515
0.217262	913.28
0.235148	939.26
0.24145	950.614
0.273517	966.809
0.284352	964.44
0.293583	965.187
0.302813	965.826
0.348752	978.2
0.398942	987.224
0.406082	983.162
0.448023	994.152
0.455665	990.017
0.499313	1000.55
0.54748	1007.04
0.597856	1012.28
0.648038	1017.36
0.698027	1022.15
0.7033	1030.49
0.747491	1027.7
0.753725	1027.18
0.796759	1031.81
0.803303	1031.37
0.847853	1036.65
0.853651	1039.58
0.896242	1034.73