File: data/nitrogen-adsorption-isotherms/jacs.6b06759-si_page_12_Zr-MTBC_des.txt
# Relative Pressure (p/p0)    Quantity Adsorbed
1	 368.596
0.986188	367.312
0.933702	362.168
0.889733	361.212
0.837937	358.565
0.791897	357.72
0.736265	354.174
0.682551	353.339
0.632673	350.689
0.582796	348.04
0.536756	345.385
0.48496	342.738
0.435083	340.089
0.389042	335.625
0.337247	333.883
0.28737	329.424
0.187615	321.41
0.231737	324.972
0.231737	324.972
0.131983	315.149
0.105126	313.374
0.0437385	295.358
0.0226366	265.527