File: data/nitrogen-adsorption-isotherms/jacs.6b04608_page_2_NPF-200_ads.txt
# Relative Pressure (p/p0)    Quantity Adsorbed
-0.004402	 11.1737
0.00141468	119.616
-0.00193331	278.271
0.0145491	462.308
0.0198633	582.831
0.0243904	683.237
0.0325709	793.538
0.0422446	874.23
0.0554604	953.298
0.0704792	1034.85
0.0872992	1118.71
0.107519	1186.19
0.134918	1260.23
0.154881	1301.13
0.246074	1349.42
0.982606	1403.56
0.959144	1403.41
0.92395	1403.19
0.893449	1403
0.86764	1402.84
0.839444	1398.32
0.792477	1393.69
0.745594	1397.74
0.715093	1397.55
0.675123	1388.61
0.632933	1392.69
0.586008	1392.4
0.515495	1378.94
0.550814	1392.18
0.459144	1374.24
0.421562	1369.67
0.374595	1365.04
0.313551	1360.31