File: data/nitrogen-adsorption-isotherms/jacs.6b03263_page_5_PCN-134-31%_ads.txt
# Relative Pressure (p/p0)    Quantity Adsorbed
-0.000733239	 95.7731
-6.05309e-05	236.098
0.00499714	353.952
0.00918703	455.021
0.0157185	520.645
0.0180697	458.592
0.0243337	523.564
0.0347652	548.806
0.0486576	559.107
0.0596158	567.89
0.0673089	570.19
0.119904	585.835
0.134802	590.828
0.150306	590.597
0.168128	591.829
0.182897	593.897
0.197622	595.339
0.212494	596.12
0.229201	597
0.246356	598.367
0.262812	599.757
0.276077	600.823
0.291617	600.221
0.308696	600.688
0.325851	601.942
0.341305	603.436
0.354889	603.549
0.370666	602.91
0.387999	602.836
0.404903	603.256
0.419362	604.847
0.43394	605.255
0.450087	604.596
0.467099	606.345
0.483597	606.62
0.497811	607.526
0.512876	607.049
0.529585	607.021
0.546744	607.305
0.562886	608.239
0.576232	608.572
0.591927	608.635
0.609086	608.737
0.626243	609.484
0.641697	611.069
0.65528	611.302
0.671565	610.458
0.68839	610.828
0.705285	612.059
0.72035	613.268
0.734223	612.803
0.750801	612.74
0.767759	613.747
0.784334	614.742
0.798391	615.412
0.81327	615.723
0.830172	614.969
0.847505	615.097
0.863273	617.397
0.876854	618.228
0.892313	618.324
0.909726	618.147
0.926627	619.435
0.942078	621.918
0.952044	621.785