File: data/nitrogen-adsorption-isotherms/jacs.5b02897-si_page_18_Mn2(DOBDC)(DMF)2_ads.txt
# Relative Pressure (p/p0)    Quantity Adsorbed
0.910822	 77.3887
0.804989	76.6766
0.708771	75.9644
0.605405	75.9644
0.506805	75.4896
0.405843	75.4896
0.312051	75.0148
0.203835	74.5401
0.105127	72.8783
0.0665801	71.9288
0.049689	71.2166
0.0376056	70.5045
0.0253937	68.368
0.0107781	66.2315
0.00783925	60.2967
0.00700468	51.0386
0.00604171	40.3561
0.0027391	30.3858
0.00184033	20.4154
-0.00386613	10.4451