File: data/nitrogen-adsorption-isotherms/jacs.6b08724-si_page_53_(Mn1.77Ni1.23O)2(TCPP-Ni)3_des.txt
# Relative Pressure (p/p0)    Quantity Adsorbed
0.987654	 699.526
0.899471	684.36
0.855379	680.569
0.809524	678.673
0.760141	672.986
0.708995	669.194
0.661376	665.403
0.610229	661.611
0.559083	657.82
0.507937	648.341
0.45679	642.654
0.405644	638.863
0.361552	631.28
0.315697	623.697
0.257496	616.114
0.215168	608.531
0.209877	600.948
0.202822	498.578
0.195767	458.768
0.19224	439.81
0.19224	439.81
0.188713	426.54
0.183422	418.957
0.165785	394.313
0.141093	369.668
0.118166	345.024
0.0881834	320.379
0.0723104	297.63
0.0511464	286.256
0.0299824	259.716
0.0299824	259.716
0.0229277	246.445
0.00881834	212.322
0.00881834	128.91
0.00705467	68.2464