File: data/nitrogen-adsorption-isotherms/jacs.5b11034_page_4_Zn-bpdc-10a(bpe)_ads.txt
# Relative Pressure (p/p0)    Quantity Adsorbed
0.00412716	 7.48883
0.0333533	10.4024
0.0664449	12.238
0.0924624	12.8487
0.122749	14.2117
0.149621	15.0024
0.174118	15.5211
0.20212	16.4765
0.229864	16.9657
0.254654	17.0057
0.285654	17.648
0.304493	17.8364
0.354328	18.4436
0.402962	19.7229
0.44915	20.3012
0.503843	20.8015
0.554903	21.8989
0.603533	22.9994
0.655809	24.0953
0.742073	23.5383
0.772474	24.5503
0.809386	26.9995
0.836977	29.2052
0.863759	31.4634
0.88984	35.0585
0.91495	38.6951
0.939574	44.974
0.958171	52.0715
0.968855	59.1744
0.976332	67.9028
0.980151	76.0362
0.989014	92.7013