File: data/nitrogen-adsorption-isotherms/jacs.6b06759-si_page_12_Zr-MTBC_ads.txt
# Relative Pressure (p/p0)    Quantity Adsorbed
-0.00166018	 53.0156
-0.00196631	44.3957
-0.00187337	37.6333
-0.00187337	31.3653
-0.00187337	25.0972
-0.00187337	18.8291
-0.00187337	12.561
-0.00187337	6.29294
-0.00237676	1.00544
-0.00066525	65.3978
-0.00202439	59.5071
0.000542875	122.557
0.000542875	117.043
0.00156513	177.555
0.00223425	172.355
0.00134829	161.653
0.00124761	155.993
0.00324677	193.746
-6.11873e-05	187.383
0.00493027	205.006
0.00587876	213.54
0.00708688	220.566
0.00779162	227.148
0.001751	109.789
0.001751	103.521
0.001751	97.2531
0.001751	90.985
0.001751	82.4376
0.00295912	149.106
0.00295912	140.131
0.0189668	257.399
0.0182254	252.205
0.0144363	238.126
0.0162485	243.964
0.0282026	277.243
0.0388311	287.476
0.0412567	281.862
0.051543	288.403
0.0642513	293.375
0.0782656	297.115
0.0923603	302.303
0.104522	302.978
0.118456	305.909
0.132228	308.203
0.146273	308.328
0.158807	310.621
0.171828	312.869
0.183876	314.119
0.198675	315.354
0.192635	312.114
0.211481	316.106
0.224771	317.884
0.23951	318.782
0.251289	319.317
0.264518	320.624
0.278412	322.259
0.294344	323.256
0.305066	323.435
0.319125	325.102
0.33172	326.249
0.349691	326.983
0.362376	327.904
0.37627	329.539
0.392533	330.123
0.40299	330.711
0.417467	332.106
0.431038	333.361
0.44989	332.63
0.447952	336.54
0.462651	334.783
0.477349	336.15
0.493256	336.262
0.503265	336.798
0.517217	338.093
0.53103	339.081
0.54929	340.91
0.548578	336.971
0.562321	340.356
0.576281	341.403
0.593082	341.534
0.603539	342.047
0.61729	343.385
0.630942	344.478
0.649004	346.974
0.649668	342.46
0.662595	345.82
0.675616	346.972
0.690533	347.997
0.7017	347.854
0.71539	348.984
0.727834	350.164
0.74958	353.197
0.762869	351.932
0.799838	356.292
0.813611	354.844
0.825893	355.925
0.850123	359.182
0.900596	362.167
0.913885	360.636
0.921738	361.593
0.951337	365.223
0.964264	364.157
0.97688	365.51