File: data/nitrogen-adsorption-isotherms/jacs.5b00365_page_3_MUF-77-ethyl_ads.txt
# Relative Pressure (p/p0)    Quantity Adsorbed
-0.00155522	 188.919
-0.00237429	162.997
-0.00243047	142.885
-0.00185213	122.036
-0.00209734	71.6905
0.00134326	380.107
0.000872601	288.463
0.00269261	439.944
0.00074635	486.624
0.00523947	513.916
0.0082767	569.024
0.0115827	594.728
0.00405862	349.814
0.00584335	71.7416
0.0138882	623.998
0.0165144	647.184
0.0195721	666.123
0.0219885	692.304
0.0257976	709.511
0.0309613	730.285
0.0342179	751.175
0.0400048	775.477
0.0452406	793.717
0.0500983	809.608
0.0545884	832.981
0.0612406	849.624
0.0684718	866.976
0.0739837	891.886
0.0778346	873.853
0.0812642	902.482
0.0860696	929.862
0.0942962	912.358
0.100179	930.304
0.112096	936.205
0.126034	941.212
0.13813	945.329
0.151169	957.5
0.164155	951.113
0.177442	967.618
0.190177	955.819
0.203765	967.178
0.217245	961.666
0.228099	961.951
0.242497	963.451
0.255786	965.476
0.267222	967.177
0.281776	968.662
0.294915	972.455
0.307279	978.21
0.320273	974.616
0.333281	975.786
0.347326	975.049
0.358278	976.205
0.372303	978.974
0.38531	979.744
0.399238	981.385
0.411334	985.329
0.424329	982.055
0.437335	982.585
0.451255	981.197
0.460267	981.493
0.477537	985.125
0.491646	985.242
0.503575	995.287
0.516555	986.558
0.529559	986.45
0.54367	985.839
0.554464	986.302
0.568576	987.882
0.581583	988.892
0.59551	989.99
0.605248	996.484
0.630059	990.884
0.644166	988.846
0.654954	988.702
0.669076	992.317
0.682081	992.209
0.696005	992.581
0.7081	995.878
0.721094	992.204
0.734102	993.533
0.747845	990.785
0.758172	992.056
0.79426	994.997
0.806233	999.423
0.819224	994.583
0.832228	994.475
0.846272	993.015
0.857125	993.171
0.871245	995.907
0.88425	995.799
0.898003	996.705
0.923263	995.955
0.936271	997.204
0.949807	996.933
0.962289	1000.69
0.975283	996.88
0.988813	994.537
0.999587	995.062