File: data/nitrogen-adsorption-isotherms/jacs.6b03263_page_5_PCN-134-5%_ads.txt
# Relative Pressure (p/p0)    Quantity Adsorbed
0.0125135	 54.2788
0.0260858	71.8711
0.0415319	82.5233
0.0534277	93.5429
0.0689114	95.7779
0.0890287	97.7392
0.104721	100.335
0.120691	100.698
0.134773	101.285
0.150934	101.984
0.167956	103.879
0.186358	102.847
0.199573	105.524
0.213709	105.154
0.230889	105.124
0.249878	106.879
0.266603	107.076
0.281975	108.229
0.29631	108.881
0.312235	107.98
0.329239	108.009
0.346832	108.512
0.360707	110.125
0.37481	110.271
0.391446	111.793
0.409535	111.309
0.426887	110.606
0.441194	112.334
0.456361	114.174
0.471698	112.543
0.490214	112.422
0.506287	114.058
0.521682	114.457
0.537328	116.019
0.55242	116.305
0.568951	116.109
0.585759	115.408
0.599919	116.433
0.614725	116.431
0.632072	117.424
0.649751	116.865
0.667531	116.548
0.681059	119.004
0.696435	120.219
0.712561	119.208
0.72861	119.723
0.746131	119.673
0.759246	121.277
0.775483	122.98
0.791728	122.203
0.809286	121.849
0.825583	123.233
0.840592	124.487
0.854834	124.928
0.889574	127.491
0.905692	129.162
0.921065	131.165
0.935436	132.247
0.951959	134.466