File: data/nitrogen-adsorption-isotherms/jacs.5b00365-si_page_42_MUF-77-hexyl_ads.txt
# Relative Pressure (p/p0)    Quantity Adsorbed
-0.000701402	 294.465
-0.000395618	276.52
-0.000356389	243.254
-0.000618786	187.698
-0.000814059	98.8489
0.000908933	341.591
0.00237348	399.965
0.00237348	372.421
0.00330497	424.998
0.00504411	446.531
0.00865665	464.127
0.00211503	329.584
0.00357957	414.152
0.0137398	477.219
0.0109023	439.209
0.020788	489.552
0.0323309	500.781
0.0475159	508.496
0.0636258	514.642
0.0797358	518.889
0.0958458	522.567
0.111956	525.628
0.128066	527.954
0.144176	530.35
0.160286	531.964
0.176396	534.004
0.192506	535.333
0.208616	538.274
0.223353	538.427
0.240378	539.634
0.257861	541.167
0.274311	542.682
0.28791	543.167
0.303902	543.516
0.321971	546.12
0.337495	547.079
0.352028	546.706
0.374109	548.787
0.392965	549.096
0.405074	548.909
0.420974	549.879
0.448252	549.748
0.461982	551.735
0.492286	552.489
0.506016	552.071
0.520563	553.011
0.548975	553.846
0.5645	555.051
0.58061	555.099
0.598012	553.717
0.612219	555.49
0.62894	556.143
0.646305	555.807
0.656975	556.292
0.70116	556.208
0.716812	558.136
0.726332	558.231
0.750692	557.987
0.766607	559.275
0.776858	559.275
0.799742	559.079
0.814937	561.173
0.831047	561.363
0.848529	559.993
0.858873	561.259
0.900655	560.227
0.91599	562.36
0.9321	562.407
0.949502	560.995
0.96432	562.55
0.98043	562.882
0.995248	562.53