File: data/nitrogen-adsorption-isotherms/jacs.5b11034_page_4_Zn-bpdc-11a(bpe)_des.txt
# Relative Pressure (p/p0)    Quantity Adsorbed
0.980978	 97.229
0.962927	62.4407
0.962927	62.4407
0.949221	50.9959
0.929791	41.681
0.904665	35.7696
0.88343	31.9759
0.858358	28.6116
0.844879	27.7797
0.819834	25.689
0.798654	24.4424
0.765908	21.9369
0.738968	21.1222
0.702412	20.3197
0.648531	18.6902
0.600419	17.0533
0.550393	15.8435
0.504241	15.9022
0.454224	15.1169
0.40037	14.7609
0.294549	12.3485
0.213773	12.0269
0.129115	10.0121
0.0636775	7.54823