File: data/nitrogen-adsorption-isotherms/jacs.6b02030-si_page_2_UTSA-74a_ads.txt
# Relative Pressure (p/p0)    Quantity Adsorbed
-0.00279848	 99.3532
-0.00127031	151.319
0.000265245	76.2291
0.00629202	197.313
0.00301521	179.365
0.00284911	141.924
0.00284911	131.729
0.00245045	120.783
0.00284911	110.992
0.00284911	88.0093
0.00245045	65.9926
0.00245045	55.4401
0.00245045	45.0258
0.00245045	18.9901
0.00938259	205.523
0.00351353	7.77372
0.00451016	0.577606
0.00484237	99.3648
0.00683564	192.456
0.0208834	204.132
0.0736469	211.5
0.0867139	212.183
0.103936	213.839
0.111909	213.978
0.132646	215.41
0.141049	216.038
0.174491	217.86
0.185565	218.89
0.207666	219.076
0.222893	219.824
0.233108	220.851
0.234732	218.72
0.269282	223.329
0.27378	221.216
0.281242	222.363
0.305351	224.304
0.316678	223.408
0.33368	224.851
0.349013	225.422
0.364073	225.654
0.379281	226.266
0.391979	227.008
0.413993	228.083
0.427414	228.175
0.443361	228.986
0.459572	229.902
0.470449	230.162
0.487212	230.733
0.503408	231.798
0.514635	232.206
0.530031	232.608
0.546521	233.377
0.56196	234.535
0.572974	234.794
0.589533	235.51
0.605396	236.4
0.61766	237.121
0.631724	237.457
0.649175	238.322
0.664281	239.326
0.675997	239.849
0.691015	240.564
0.708085	241.463
0.719908	242.334
0.734876	242.658
0.751357	243.446
0.764532	245.35
0.778312	244.731
0.794175	245.191
0.809826	246.076
0.823144	246.943
0.837258	247.068
0.854689	247.308
0.862212	249.774
0.874902	248.249
0.89159	248.614
0.90333	249.722
0.918247	249.706
0.934235	249.488
0.949318	251.265
0.960178	251.331
0.978884	250.916
0.996691	253.972
1.00546	254.545