File: data/nitrogen-adsorption-isotherms/jacs.5b11034_page_4_MOF-1'_ads.txt
# Relative Pressure (p/p0)    Quantity Adsorbed
0.00757804	 1.23455
0.0344415	1.69491
0.0612869	1.98033
0.0881212	2.15795
0.114948	2.25827
0.141787	2.48064
0.16672	2.60697
0.195454	2.82774
0.222282	2.94026
0.246662	2.95479
0.280813	3.16469
0.300304	3.05237
0.36858	3.21627
0.401516	3.4654
0.44905	3.42657
0.519734	3.30284
0.569713	3.33687
0.618459	3.23836
0.668427	3.16953
0.720835	3.11623
0.763501	3.15198
0.790318	3.16077
0.817135	3.16955
0.84029	3.13456
0.882953	3.14286
0.909784	3.28589
0.936622	3.49606
0.963484	3.94726
0.986724	4.73532