File: data/nitrogen-adsorption-isotherms/om701262m-si_page_2_Ge4A-Zn_des.txt
# Relative Pressure (p/p0)    Quantity Adsorbed
0.0168977	 101.395
0.0270543	101.893
0.0373357	103.885
0.0447125	105.548
0.0529534	105.787
0.065227	107.955
0.0700823	109.368
0.0778293	109.288
0.0911469	111.765
0.0995381	111.926
0.115649	114.169
0.123856	114.485
0.138284	116.39
0.144954	117.91
0.15376	118.496
0.166995	119.848
0.175203	120.231
0.191267	122.478
0.199891	122.665
0.216471	125.109
0.225095	125.295
0.242149	126.792
0.250284	126.836
0.267316	126.866
0.275451	126.851
0.292025	128.895
0.300649	129.046
0.317226	131.308
0.32585	131.458
0.334017	132.226
0.34639	133.868
0.354527	134.011
0.368722	136.211
0.376718	136.283
0.392826	138.345
0.40145	138.478
0.41775	140.647
0.426651	140.89
0.434817	141.603
0.447191	143.3
0.455327	143.423
0.469523	145.643
0.477518	145.715
0.493629	147.959
0.502253	148.127
0.510419	148.786
0.522791	150.319
0.530927	150.443
0.54512	152.445
0.553115	152.517
0.56922	154.379
0.577844	154.493
0.594415	156.355
0.603039	156.469
0.621693	157.352
0.630313	157.176
0.642174	155.594
0.649403	154.124
0.656817	154.441
0.673876	156.294
0.682012	156.398
0.696528	158.209
0.704663	158.274
0.724265	160.247
0.732402	160.371
0.746594	162.373
0.755056	162.445
0.770698	164.488
0.779322	164.639
0.795893	166.501
0.804516	166.615
0.82109	168.678
0.829714	168.81
0.846427	170.825
0.854912	171.004
0.860505	171.008
0.875443	172.76
0.8829	172.765
0.89711	174.269
0.905302	174.958