File: data/nitrogen-adsorption-isotherms/om701262m-si_page_2_Ge4A-Zn_ads.txt
# Relative Pressure (p/p0)    Quantity Adsorbed
0.00312168	 83.0586
0.00879658	88.8511
0.00736319	86.3712
0.0232853	95.8476
0.0329088	97.4186
0.0279957	95.2647
0.0429665	99.2908
0.0532349	100.367
0.0635033	101.443
0.0793832	103.85
0.0880875	104.182
0.0999174	105.824
0.10882	106.205
0.120451	107.768
0.130717	108.626
0.141918	109.783
0.151245	110.159
0.161042	110.859
0.171778	112.058
0.182042	112.847
0.194082	113.987
0.202567	114.167
0.213499	115.061
0.223099	115.992
0.233363	116.751
0.245262	117.788
0.253885	117.903
0.268819	119.298
0.279081	119.948
0.287011	120.465
0.299605	121.199
0.307741	121.303
0.320133	122.707
0.339993	124.072
0.350918	124.499
0.359403	124.722
0.371445	126.017
0.381707	126.637
0.392903	127.368
0.402227	127.581
0.412028	128.567
0.422773	130.377
0.433044	131.631
0.443661	132.659
0.449745	133.968
0.457055	133.835
0.46945	135.477
0.479716	136.404
0.488117	137.191
0.500247	138.101
0.507704	138.105
0.520775	139.668
0.531038	140.328
0.540635	141.052
0.551562	141.618
0.560048	141.852
0.572091	143.226
0.582355	143.945
0.593085	144.776
0.602878	145.136
0.611894	145.529
0.623407	146.734
0.633669	147.384
0.645177	148.213
0.65419	148.436
0.663985	148.987
0.674718	149.954
0.684979	150.555
0.697015	151.382
0.705499	151.518
0.71643	152.334
0.726027	153.046
0.736289	153.627
0.748344	154.343
0.756805	154.382
0.771738	155.748
0.782	156.339
0.789929	156.745
0.802522	157.461
0.810658	157.545
0.823046	158.681
0.833307	159.242
0.842947	159.864
0.853827	160.27
0.863163	161.277
0.874392	164.389
0.884674	166.416
0.893554	168.194
0.904302	170.172
0.912849	171.221
0.92506	172.333
0.946457	174.074
0.955626	174.334
0.965987	175.386
0.979463	176.4
0.98971	177.602
0.997408	179.4